%OpenBCI Raw EEG Data
%Number of channels = 8
%Sample Rate = 250 Hz
%Board = OpenBCI_GUI$BoardCytonSerial
Sample Index, EXG Channel 0, EXG Channel 1, EXG Channel 2, EXG Channel 3, EXG Channel 4, EXG Channel 5, EXG Channel 6, EXG Channel 7, Accel Channel 0, Accel Channel 1, Accel Channel 2, Other, Other, Other, Other, Other, Other, Other, Analog Channel 0, Analog Channel 1, Analog Channel 2, Timestamp, Timestamp (Formatted)
0.0, 0.0, 0.0, 0.0, 0.0, 0.0, 0.0, 0.0, 0.0, -0.02200000174343586, 0.8320000171661377, 0.4780000150203705, 192.0, 255.0, 80.0, 26.0, 0.0, 14.0, 240.0, 0.0, 0.0, 0.0, 1.6057141705713403E9, 2020-11-18 09:42:50.571
1.0, 1989064.125, 1884586.125, -762861.609375, -696990.328125, 131101.55859375, -772878.046875, -484939.6875, -601281.5625, -0.02200000174343586, 0.8320000171661377, 0.4780000150203705, 192.0, 0.0, 0.0, 0.0, 0.0, 0.0, 0.0, 0.0, 0.0, 0.0, 1.6057141710518448E9, 2020-11-18 09:42:51.051
2.0, 2001676.875, 1826177.25, -783642.28125, -748218.375, 106812.01171875, -765204.234375, -498787.40625, -648235.78125, -0.02200000174343586, 0.8320000171661377, 0.4780000150203705, 192.0, 0.0, 0.0, 0.0, 0.0, 0.0, 0.0, 0.0, 0.0, 0.0, 1.6057141710518515E9, 2020-11-18 09:42:51.051
3.0, 2010923.625, 1764375.5625, -775457.8125, -744937.5, -113698.3125, -747465.75, -493669.734375, -708670.265625, -0.02200000174343586, 0.8320000171661377, 0.4780000150203705, 192.0, 0.0, 0.0, 0.0, 0.0, 0.0, 0.0, 0.0, 0.0, 0.0, 1.605714171051854E9, 2020-11-18 09:42:51.051
4.0, 2002626.375, 1810147.3125, -757579.828125, -697606.125, -143969.73046875, -749816.4375, -481348.21875, -673714.078125, -0.02200000174343586, 0.8320000171661377, 0.4780000150203705, 192.0, 0.0, 0.0, 0.0, 0.0, 0.0, 0.0, 0.0, 0.0, 0.0, 1.6057141710518568E9, 2020-11-18 09:42:51.051
5.0, 1988801.8125, 1882923.1875, -758637.140625, -689413.59375, 99341.51953125, -771331.5, -482466.65625, -604345.171875, -0.02200000174343586, 0.8320000171661377, 0.4780000150203705, 192.0, 0.0, 0.0, 0.0, 0.0, 0.0, 0.0, 0.0, 0.0, 0.0, 1.6057141710518591E9, 2020-11-18 09:42:51.051
6.0, 1998475.5, 1842480.9375, -781362.9375, -739847.71875, 139355.25, -768516.796875, -497297.15625, -634034.015625, -0.02200000174343586, 0.8320000171661377, 0.4780000150203705, 192.0, 0.0, 0.0, 0.0, 0.0, 0.0, 0.0, 0.0, 0.0, 0.0, 1.6057141710518618E9, 2020-11-18 09:42:51.051
7.0, 2011178.4375, 1767051.1875, -778988.671875, -751967.015625, -80816.572265625, -749174.859375, -495817.640625, -704910.328125, -0.026000000536441803, 0.8280000686645508, 0.4700000286102295, 192.0, 255.0, 48.0, 25.0, 224.0, 14.0, 176.0, 0.0, 0.0, 0.0, 1.6057141710518644E9, 2020-11-18 09:42:51.051
8.0, 2005164.9375, 1795974.0, -760750.171875, -706073.859375, -160110.7265625, -747749.53125, -483003.140625, -685839.28125, -0.026000000536441803, 0.8280000686645508, 0.4700000286102295, 192.0, 0.0, 0.0, 0.0, 0.0, 0.0, 0.0, 0.0, 0.0, 0.0, 1.6057141710518668E9, 2020-11-18 09:42:51.051
9.0, 1989634.875, 1876515.9375, -755046.1875, -684136.640625, 56038.86328125, -768168.09375, -479866.546875, -611732.53125, -0.026000000536441803, 0.8280000686645508, 0.4700000286102295, 192.0, 0.0, 0.0, 0.0, 0.0, 0.0, 0.0, 0.0, 0.0, 0.0, 1.6057141710518696E9, 2020-11-18 09:42:51.051
10.0, 1996028.25, 1856357.0625, -778227.46875, -731182.03125, 156637.8046875, -770631.984375, -494852.578125, -622527.890625, -0.026000000536441803, 0.8280000686645508, 0.4700000286102295, 192.0, 0.0, 0.0, 0.0, 0.0, 0.0, 0.0, 0.0, 0.0, 0.0, 1.6057141710518725E9, 2020-11-18 09:42:51.051
11.0, 2010567.375, 1773507.9375, -782043.1875, -756398.015625, -46065.8701171875, -751891.359375, -497622.75, -697736.484375, -0.026000000536441803, 0.8280000686645508, 0.4700000286102295, 192.0, 0.0, 0.0, 0.0, 0.0, 0.0, 0.0, 0.0, 0.0, 0.0, 1.605714171051875E9, 2020-11-18 09:42:51.051
12.0, 2007010.875, 1784373.9375, -763800.375, -714527.109375, -165867.28125, -746803.21875, -485164.96875, -695382.046875, -0.026000000536441803, 0.8280000686645508, 0.4700000286102295, 192.0, 0.0, 0.0, 0.0, 0.0, 0.0, 0.0, 0.0, 0.0, 0.0, 1.6057141710518775E9, 2020-11-18 09:42:51.051
13.0, 1991187.9375, 1865680.875, -753222.28125, -682016.625, 5989.9097900390625, -764740.21875, -479085.46875, -622562.203125, -0.026000000536441803, 0.8280000686645508, 0.4700000286102295, 192.0, 0.0, 0.0, 0.0, 0.0, 0.0, 0.0, 0.0, 0.0, 0.0, 1.6057141710518804E9, 2020-11-18 09:42:51.051
14.0, 1993247.8125, 1867941.0, -774808.171875, -722184.28125, 164196.26953125, -772956.375, -493110.234375, -613064.53125, -0.026000000536441803, 0.8280000686645508, 0.4700000286102295, 192.0, 0.0, 0.0, 0.0, 0.0, 0.0, 0.0, 0.0, 0.0, 0.0, 1.6057141710518832E9, 2020-11-18 09:42:51.051
15.0, 2008982.25, 1784751.75, -784075.21875, -757920.984375, -3590.4052734375, -755331.5625, -499334.578125, -687112.265625, -0.026000000536441803, 0.8280000686645508, 0.4700000286102295, 192.0, 0.0, 0.0, 0.0, 0.0, 0.0, 0.0, 0.0, 0.0, 0.0, 1.605714171051886E9, 2020-11-18 09:42:51.051
16.0, 2008893.1875, 1775589.1875, -766195.59375, -722801.203125, -162158.3203125, -745798.453125, -487140.140625, -703080.515625, -0.026000000536441803, 0.8280000686645508, 0.4700000286102295, 192.0, 0.0, 0.0, 0.0, 0.0, 0.0, 0.0, 0.0, 0.0, 0.0, 1.6057141710518887E9, 2020-11-18 09:42:51.051
17.0, 1994135.0625, 1852287.0, -752344.6875, -682791.75, -44714.0361328125, -760109.671875, -478398.28125, -635963.0625, -0.020000001415610313, 0.8320000171661377, 0.4700000286102295, 192.0, 255.0, 96.0, 26.0, 0.0, 14.0, 176.0, 0.0, 0.0, 0.0, 1.6057141710518916E9, 2020-11-18 09:42:51.051
18.0, 1990977.1875, 1877401.6875, -770627.15625, -712777.78125, 162706.03125, -774066.28125, -490161.9375, -605591.34375, -0.020000001415610313, 0.8320000171661377, 0.4700000286102295, 192.0, 0.0, 0.0, 0.0, 0.0, 0.0, 0.0, 0.0, 0.0, 0.0, 1.6057141710518944E9, 2020-11-18 09:42:51.051
19.0, 2007063.9375, 1799034.0, -784826.203125, -756636.75, 40759.388671875, -758795.390625, -499710.609375, -673598.765625, -0.020000001415610313, 0.8320000171661377, 0.4700000286102295, 192.0, 0.0, 0.0, 0.0, 0.0, 0.0, 0.0, 0.0, 0.0, 0.0, 1.6057141710518973E9, 2020-11-18 09:42:51.051
20.0, 2010461.8125, 1768573.125, -769148.15625, -731449.734375, -152325.87890625, -745449.234375, -489208.6875, -708258.28125, -0.020000001415610313, 0.8320000171661377, 0.4700000286102295, 192.0, 0.0, 0.0, 0.0, 0.0, 0.0, 0.0, 0.0, 0.0, 0.0, 1.6057141710519E9, 2020-11-18 09:42:51.051
21.0, 1997441.25, 1836411.5625, -753443.859375, -686710.453125, -92575.916015625, -755761.265625, -478841.953125, -650715.234375, -0.020000001415610313, 0.8320000171661377, 0.4700000286102295, 192.0, 0.0, 0.0, 0.0, 0.0, 0.0, 0.0, 0.0, 0.0, 0.0, 1.6057141710519023E9, 2020-11-18 09:42:51.051
22.0, 1989537.375, 1882464.0, -766404.796875, -703552.078125, 145414.8984375, -773876.390625, -487216.875, -602270.765625, -0.020000001415610313, 0.8320000171661377, 0.4700000286102295, 192.0, 0.0, 0.0, 0.0, 0.0, 0.0, 0.0, 0.0, 0.0, 0.0, 1.6057141710519052E9, 2020-11-18 09:42:51.051
23.0, 2003919.375, 1814965.6875, -784590.1875, -752093.0625, 80562.298828125, -762676.546875, -499365.65625, -658759.6875, -0.020000001415610313, 0.8320000171661377, 0.4700000286102295, 192.0, 0.0, 0.0, 0.0, 0.0, 0.0, 0.0, 0.0, 0.0, 0.0, 1.6057141710519168E9, 2020-11-18 09:42:51.051
24.0, 2010915.5625, 1764912.0, -772993.40625, -739987.21875, -133170.62109375, -746367.09375, -491787.890625, -709692.1875, -0.020000001415610313, 0.8320000171661377, 0.4700000286102295, 192.0, 0.0, 0.0, 0.0, 0.0, 0.0, 0.0, 0.0, 0.0, 0.0, 1.6057141710519197E9, 2020-11-18 09:42:51.051
25.0, 2000624.4375, 1820387.4375, -755827.265625, -692724.515625, -129483.65625, -751947.703125, -480140.671875, -664998.515625, -0.020000001415610313, 0.8320000171661377, 0.4700000286102295, 192.0, 0.0, 0.0, 0.0, 0.0, 0.0, 0.0, 0.0, 0.0, 0.0, 1.6057141710519223E9, 2020-11-18 09:42:51.051
26.0, 1989006.1875, 1884273.0, -761626.171875, -694967.390625, 119623.8515625, -772514.90625, -484066.875, -602245.03125, -0.020000001415610313, 0.8320000171661377, 0.4700000286102295, 192.0, 0.0, 0.0, 0.0, 0.0, 0.0, 0.0, 0.0, 0.0, 0.0, 1.6057141710519252E9, 2020-11-18 09:42:51.051
27.0, 2001030.5625, 1831055.25, -783031.3125, -745578.515625, 114110.8359375, -765962.765625, -498245.578125, -644316.0, -0.02200000174343586, 0.8300000429153442, 0.4700000286102295, 192.0, 255.0, 80.0, 25.0, 240.0, 14.0, 176.0, 0.0, 0.0, 0.0, 1.605714171051928E9, 2020-11-18 09:42:51.051
28.0, 2011161.1875, 1764935.4375, -776304.328125, -746786.578125, -107475.5859375, -747680.296875, -494028.609375, -707995.40625, -0.02200000174343586, 0.8300000429153442, 0.4700000286102295, 192.0, 0.0, 0.0, 0.0, 0.0, 0.0, 0.0, 0.0, 0.0, 0.0, 1.6057141710519307E9, 2020-11-18 09:42:51.051
29.0, 2003310.375, 1805777.4375, -758802.375, -700349.53125, -151817.87109375, -749282.671875, -481859.4375, -677356.546875, -0.02200000174343586, 0.8300000429153442, 0.4700000286102295, 192.0, 0.0, 0.0, 0.0, 0.0, 0.0, 0.0, 0.0, 0.0, 0.0, 1.6057141710519333E9, 2020-11-18 09:42:51.051
30.0, 1988995.5, 1881064.5, -757685.484375, -687811.78125, 83855.51953125, -770304.1875, -481618.03125, -606379.921875, -0.02200000174343586, 0.8300000429153442, 0.4700000286102295, 192.0, 0.0, 0.0, 0.0, 0.0, 0.0, 0.0, 0.0, 0.0, 0.0, 1.6057141710519364E9, 2020-11-18 09:42:51.051
31.0, 1998003.9375, 1846447.3125, -780528.796875, -737353.78125, 141327.75, -768797.34375, -496567.59375, -630820.734375, -0.02200000174343586, 0.8300000429153442, 0.4700000286102295, 192.0, 0.0, 0.0, 0.0, 0.0, 0.0, 0.0, 0.0, 0.0, 0.0, 1.6057141710519392E9, 2020-11-18 09:42:51.051
32.0, 2011227.1875, 1768516.875, -779996.625, -753401.484375, -74352.984375, -749696.8125, -496402.359375, -703185.140625, -0.02200000174343586, 0.8300000429153442, 0.4700000286102295, 192.0, 0.0, 0.0, 0.0, 0.0, 0.0, 0.0, 0.0, 0.0, 0.0, 1.6057141710519419E9, 2020-11-18 09:42:51.051
33.0, 2006142.375, 1792313.4375, -761775.328125, -708517.921875, -165737.4609375, -746982.375, -483752.53125, -689049.890625, -0.02200000174343586, 0.8300000429153442, 0.4700000286102295, 192.0, 0.0, 0.0, 0.0, 0.0, 0.0, 0.0, 0.0, 0.0, 0.0, 1.6057141710519445E9, 2020-11-18 09:42:51.051
34.0, 1989973.5, 1873462.5, -754512.984375, -683006.34375, 38068.5966796875, -766931.578125, -479606.90625, -614674.921875, -0.02200000174343586, 0.8300000429153442, 0.4700000286102295, 192.0, 0.0, 0.0, 0.0, 0.0, 0.0, 0.0, 0.0, 0.0, 0.0, 1.605714171051947E9, 2020-11-18 09:42:51.051
35.0, 1995010.6875, 1860129.75, -777441.046875, -728500.359375, 158417.1796875, -771162.0, -494391.234375, -618950.34375, -0.02200000174343586, 0.8300000429153442, 0.4700000286102295, 192.0, 0.0, 0.0, 0.0, 0.0, 0.0, 0.0, 0.0, 0.0, 0.0, 1.60571417105195E9, 2020-11-18 09:42:51.051
36.0, 2010175.875, 1776528.5625, -783082.265625, -757288.5, -34884.814453125, -752407.453125, -498225.1875, -694562.90625, -0.02200000174343586, 0.8300000429153442, 0.4700000286102295, 192.0, 0.0, 0.0, 0.0, 0.0, 0.0, 0.0, 0.0, 0.0, 0.0, 1.6057141710519528E9, 2020-11-18 09:42:51.051
37.0, 2007643.875, 1781145.75, -764877.5625, -717144.984375, -167977.11328125, -745791.515625, -485724.46875, -697905.46875, -0.020000001415610313, 0.8320000171661377, 0.4660000205039978, 192.0, 255.0, 96.0, 26.0, 0.0, 14.0, 144.0, 0.0, 0.0, 0.0, 1.6057141710519557E9, 2020-11-18 09:42:51.051
38.0, 1991815.5, 1861530.375, -753294.1875, -682118.53125, -11841.41748046875, -763012.359375, -478760.390625, -626016.890625, -0.020000001415610313, 0.8320000171661377, 0.4660000205039978, 192.0, 0.0, 0.0, 0.0, 0.0, 0.0, 0.0, 0.0, 0.0, 0.0, 1.6057141710519586E9, 2020-11-18 09:42:51.051
39.0, 1992743.625, 1871091.9375, -773873.671875, -719265.0, 163474.21875, -772783.125, -492071.15625, -609878.578125, -0.020000001415610313, 0.8320000171661377, 0.4660000205039978, 192.0, 0.0, 0.0, 0.0, 0.0, 0.0, 0.0, 0.0, 0.0, 0.0, 1.6057141710519617E9, 2020-11-18 09:42:51.051
40.0, 2008582.5, 1788417.1875, -784785.984375, -757889.859375, 7729.053955078125, -755849.765625, -499357.640625, -682823.953125, -0.020000001415610313, 0.8320000171661377, 0.4660000205039978, 192.0, 0.0, 0.0, 0.0, 0.0, 0.0, 0.0, 0.0, 0.0, 0.0, 1.6057141710519643E9, 2020-11-18 09:42:51.051
41.0, 2009600.25, 1773015.9375, -767300.671875, -725407.78125, -161620.8046875, -745102.6875, -487600.40625, -704373.375, -0.020000001415610313, 0.8320000171661377, 0.4660000205039978, 192.0, 0.0, 0.0, 0.0, 0.0, 0.0, 0.0, 0.0, 0.0, 0.0, 1.6057141710519671E9, 2020-11-18 09:42:51.051
42.0, 1995284.25, 1847384.4375, -752762.578125, -683650.59375, -61380.2109375, -758400.5625, -478378.96875, -639703.6875, -0.020000001415610313, 0.8320000171661377, 0.4660000205039978, 192.0, 0.0, 0.0, 0.0, 0.0, 0.0, 0.0, 0.0, 0.0, 0.0, 1.60571417105197E9, 2020-11-18 09:42:51.051
43.0, 1990837.125, 1878854.25, -769436.765625, -709924.453125, 156472.58203125, -773521.78125, -489210.28125, -603881.15625, -0.020000001415610313, 0.8320000171661377, 0.4660000205039978, 192.0, 0.0, 0.0, 0.0, 0.0, 0.0, 0.0, 0.0, 0.0, 0.0, 1.6057141710519729E9, 2020-11-18 09:42:51.051
44.0, 2006199.1875, 1803076.5, -785203.875, -755728.03125, 50420.16796875, -759721.828125, -499770.140625, -669032.578125, -0.020000001415610313, 0.8320000171661377, 0.4660000205039978, 192.0, 0.0, 0.0, 0.0, 0.0, 0.0, 0.0, 0.0, 0.0, 0.0, 1.6057141710519755E9, 2020-11-18 09:42:51.051
45.0, 2010203.625, 1766754.5625, -770774.109375, -734164.640625, -148338.50390625, -745699.21875, -490276.21875, -708490.546875, -0.020000001415610313, 0.8320000171661377, 0.4660000205039978, 192.0, 0.0, 0.0, 0.0, 0.0, 0.0, 0.0, 0.0, 0.0, 0.0, 1.6057141710519783E9, 2020-11-18 09:42:51.051
46.0, 1997798.4375, 1830991.3125, -754791.9375, -688699.59375, -104853.45703125, -754574.671875, -479556.46875, -654421.5, -0.01600000075995922, 0.8340000510215759, 0.46400001645088196, 192.0, 255.0, 128.0, 26.0, 16.0, 14.0, 128.0, 0.0, 0.0, 0.0, 1.6057141710519812E9, 2020-11-18 09:42:51.051
47.0, 1989209.0625, 1882791.75, -765228.375, -701049.5625, 137564.61328125, -773217.609375, -486397.734375, -601645.828125, -0.01600000075995922, 0.8340000510215759, 0.46400001645088196, 192.0, 0.0, 0.0, 0.0, 0.0, 0.0, 0.0, 0.0, 0.0, 0.0, 1.6057141710519865E9, 2020-11-18 09:42:51.051
48.0, 2003043.75, 1819056.0, -784423.359375, -750546.0, 89727.943359375, -763390.546875, -499115.671875, -654065.859375, -0.01600000075995922, 0.8340000510215759, 0.46400001645088196, 192.0, 0.0, 0.0, 0.0, 0.0, 0.0, 0.0, 0.0, 0.0, 0.0, 1.6057141710519888E9, 2020-11-18 09:42:51.051
49.0, 2010765.375, 1763843.8125, -774332.90625, -742716.609375, -127259.02734375, -746808.609375, -492663.890625, -709068.28125, -0.01600000075995922, 0.8340000510215759, 0.46400001645088196, 192.0, 0.0, 0.0, 0.0, 0.0, 0.0, 0.0, 0.0, 0.0, 0.0, 1.6057141710519917E9, 2020-11-18 09:42:51.051
50.0, 2001439.875, 1815034.875, -757018.171875, -695565.0, -138806.47265625, -751060.96875, -480924.9375, -668784.75, -0.01600000075995922, 0.8340000510215759, 0.46400001645088196, 192.0, 0.0, 0.0, 0.0, 0.0, 0.0, 0.0, 0.0, 0.0, 0.0, 1.605714171051994E9, 2020-11-18 09:42:51.051
51.0, 1988853.375, 1883076.5625, -760479.796875, -692594.71875, 107877.38671875, -772025.109375, -483492.890625, -603131.765625, -0.01600000075995922, 0.8340000510215759, 0.46400001645088196, 192.0, 0.0, 0.0, 0.0, 0.0, 0.0, 0.0, 0.0, 0.0, 0.0, 1.6057141710519967E9, 2020-11-18 09:42:51.051
52.0, 1999965.75, 1835695.5, -782434.78125, -743454.234375, 123177.24609375, -767201.4375, -497905.453125, -639731.578125, -0.01600000075995922, 0.8340000510215759, 0.46400001645088196, 192.0, 0.0, 0.0, 0.0, 0.0, 0.0, 0.0, 0.0, 0.0, 0.0, 1.605714171051999E9, 2020-11-18 09:42:51.051
53.0, 2011156.875, 1764976.875, -777930.28125, -750062.109375, -98865.69140625, -748613.71875, -495156.1875, -706872.09375, -0.01600000075995922, 0.8340000510215759, 0.46400001645088196, 192.0, 0.0, 0.0, 0.0, 0.0, 0.0, 0.0, 0.0, 0.0, 0.0, 1.605714171052002E9, 2020-11-18 09:42:51.052
54.0, 2004470.25, 1800633.5625, -759674.0625, -703186.21875, -160030.79296875, -748411.5, -482593.265625, -681443.15625, -0.01600000075995922, 0.8340000510215759, 0.46400001645088196, 192.0, 0.0, 0.0, 0.0, 0.0, 0.0, 0.0, 0.0, 0.0, 0.0, 1.6057141710520048E9, 2020-11-18 09:42:51.052
55.0, 1989150.0, 1878740.625, -756404.484375, -686209.96875, 68808.861328125, -769561.78125, -481025.25, -608341.6875, -0.01600000075995922, 0.8340000510215759, 0.46400001645088196, 192.0, 0.0, 0.0, 0.0, 0.0, 0.0, 0.0, 0.0, 0.0, 0.0, 1.6057141710520077E9, 2020-11-18 09:42:51.052
56.0, 1996821.0, 1850551.6875, -779795.484375, -735216.09375, 146923.91015625, -770111.625, -496229.625, -626571.046875, -0.02200000174343586, 0.8300000429153442, 0.4660000205039978, 192.0, 255.0, 80.0, 25.0, 240.0, 14.0, 144.0, 0.0, 0.0, 0.0, 1.6057141710520103E9, 2020-11-18 09:42:51.052
57.0, 2011154.25, 1770256.5, -781019.109375, -755297.765625, -64431.4921875, -750583.546875, -497144.25, -700956.234375, -0.02200000174343586, 0.8300000429153442, 0.4660000205039978, 192.0, 0.0, 0.0, 0.0, 0.0, 0.0, 0.0, 0.0, 0.0, 0.0, 1.6057141710520132E9, 2020-11-18 09:42:51.052
58.0, 2006906.8125, 1788327.0, -762547.265625, -711807.890625, -169735.5703125, -746486.203125, -484196.15625, -692179.5, -0.02200000174343586, 0.8300000429153442, 0.4660000205039978, 192.0, 0.0, 0.0, 0.0, 0.0, 0.0, 0.0, 0.0, 0.0, 0.0, 1.6057141710520158E9, 2020-11-18 09:42:51.052
59.0, 1990696.5, 1869914.4375, -753778.03125, -682980.046875, 21214.12939453125, -765861.375, -479128.921875, -617757.84375, -0.02200000174343586, 0.8300000429153442, 0.4660000205039978, 192.0, 0.0, 0.0, 0.0, 0.0, 0.0, 0.0, 0.0, 0.0, 0.0, 1.6057141710520184E9, 2020-11-18 09:42:51.052
60.0, 1994227.3125, 1863435.9375, -776519.4375, -725999.484375, 160014.703125, -772322.859375, -493860.1875, -615570.234375, -0.02200000174343586, 0.8300000429153442, 0.4660000205039978, 192.0, 0.0, 0.0, 0.0, 0.0, 0.0, 0.0, 0.0, 0.0, 0.0, 1.6057141710520213E9, 2020-11-18 09:42:51.052
61.0, 2009767.125, 1779619.5, -783741.5625, -758316.328125, -22806.28857421875, -754042.5, -498804.5625, -691133.4375, -0.02200000174343586, 0.8300000429153442, 0.4660000205039978, 192.0, 0.0, 0.0, 0.0, 0.0, 0.0, 0.0, 0.0, 0.0, 0.0, 1.605714171052024E9, 2020-11-18 09:42:51.052
62.0, 2008231.125, 1778055.75, -765602.296875, -720119.015625, -168239.42578125, -746092.453125, -486497.484375, -700392.9375, -0.02200000174343586, 0.8300000429153442, 0.4660000205039978, 192.0, 0.0, 0.0, 0.0, 0.0, 0.0, 0.0, 0.0, 0.0, 0.0, 1.6057141710520267E9, 2020-11-18 09:42:51.052
63.0, 1993124.4375, 1857021.75, -752722.875, -682504.78125, -29648.6044921875, -761670.703125, -478568.90625, -630650.671875, -0.02200000174343586, 0.8300000429153442, 0.4660000205039978, 192.0, 0.0, 0.0, 0.0, 0.0, 0.0, 0.0, 0.0, 0.0, 0.0, 1.6057141710520291E9, 2020-11-18 09:42:51.052
64.0, 1991963.625, 1873026.375, -772528.828125, -716960.4375, 159162.83203125, -773363.015625, -491205.84375, -608151.796875, -0.02200000174343586, 0.8300000429153442, 0.4660000205039978, 192.0, 0.0, 0.0, 0.0, 0.0, 0.0, 0.0, 0.0, 0.0, 0.0, 1.605714171052032E9, 2020-11-18 09:42:51.052
65.0, 2007821.8125, 1792296.75, -784882.03125, -757881.84375, 17946.662109375, -757291.734375, -499656.421875, -678898.828125, -0.02200000174343586, 0.8300000429153442, 0.4660000205039978, 192.0, 0.0, 0.0, 0.0, 0.0, 0.0, 0.0, 0.0, 0.0, 0.0, 1.6057141710520344E9, 2020-11-18 09:42:51.052
66.0, 2009786.4375, 1770718.3125, -768189.0, -728372.15625, -159922.4296875, -745646.671875, -488532.75, -705893.109375, -0.02200000174343586, 0.8300000429153442, 0.46800002455711365, 192.0, 255.0, 80.0, 25.0, 240.0, 14.0, 160.0, 0.0, 0.0, 0.0, 1.6057141710520377E9, 2020-11-18 09:42:51.052
67.0, 1996190.25, 1842199.6875, -753214.78125, -685336.640625, -76942.927734375, -757551.375, -478892.90625, -644298.328125, -0.02200000174343586, 0.8300000429153442, 0.46800002455711365, 192.0, 0.0, 0.0, 0.0, 0.0, 0.0, 0.0, 0.0, 0.0, 0.0, 1.6057141710520403E9, 2020-11-18 09:42:51.052
68.0, 1990563.0, 1880478.1875, -767988.375, -707398.875, 151001.94140625, -773934.84375, -488557.96875, -602805.609375, -0.02200000174343586, 0.8300000429153442, 0.46800002455711365, 192.0, 0.0, 0.0, 0.0, 0.0, 0.0, 0.0, 0.0, 0.0, 0.0, 1.6057141710520432E9, 2020-11-18 09:42:51.052
69.0, 2005282.875, 1808052.5625, -785147.53125, -754904.578125, 62445.046875, -761672.859375, -500137.59375, -664436.859375, -0.02200000174343586, 0.8300000429153442, 0.46800002455711365, 192.0, 0.0, 0.0, 0.0, 0.0, 0.0, 0.0, 0.0, 0.0, 0.0, 1.605714171052046E9, 2020-11-18 09:42:51.052
70.0, 2010935.4375, 1765888.3125, -771734.34375, -737326.96875, -143229.97265625, -746482.453125, -491446.171875, -709292.53125, -0.02200000174343586, 0.8300000429153442, 0.46800002455711365, 192.0, 0.0, 0.0, 0.0, 0.0, 0.0, 0.0, 0.0, 0.0, 0.0, 1.605714171052051E9, 2020-11-18 09:42:51.052
71.0, 2000501.0625, 1827085.5, -754904.578125, -690608.25, -117291.3984375, -753416.484375, -480170.15625, -659649.65625, -0.02200000174343586, 0.8300000429153442, 0.46800002455711365, 192.0, 0.0, 0.0, 0.0, 0.0, 0.0, 0.0, 0.0, 0.0, 0.0, 1.6057141710520537E9, 2020-11-18 09:42:51.052
72.0, 1990293.1875, 1884336.75, -763726.359375, -698462.296875, 128714.390625, -773266.453125, -485832.328125, -602194.59375, -0.02200000174343586, 0.8300000429153442, 0.46800002455711365, 192.0, 0.0, 0.0, 0.0, 0.0, 0.0, 0.0, 0.0, 0.0, 0.0, 1.6057141710520563E9, 2020-11-18 09:42:51.052
73.0, 2002694.625, 1824506.25, -783978.65625, -748871.203125, 99023.94140625, -764912.953125, -499136.0625, -650073.65625, -0.02200000174343586, 0.8300000429153442, 0.46800002455711365, 192.0, 0.0, 0.0, 0.0, 0.0, 0.0, 0.0, 0.0, 0.0, 0.0, 1.6057141710520592E9, 2020-11-18 09:42:51.052
74.0, 2011224.5625, 1764031.6875, -775050.65625, -745042.078125, -120822.2578125, -747343.40625, -493478.765625, -709095.140625, -0.02200000174343586, 0.8300000429153442, 0.46800002455711365, 192.0, 0.0, 0.0, 0.0, 0.0, 0.0, 0.0, 0.0, 0.0, 0.0, 1.6057141710520618E9, 2020-11-18 09:42:51.052
75.0, 2002679.625, 1810773.9375, -757524.0, -697881.890625, -146896.01953125, -750182.296875, -481529.53125, -672873.515625, -0.02200000174343586, 0.8300000429153442, 0.46800002455711365, 192.0, 0.0, 0.0, 0.0, 0.0, 0.0, 0.0, 0.0, 0.0, 0.0, 1.6057141710520647E9, 2020-11-18 09:42:51.052
76.0, 1989408.5625, 1882562.8125, -758862.421875, -690400.125, 96343.880859375, -771223.125, -482715.046875, -604375.21875, -0.018000001087784767, 0.8320000171661377, 0.46400001645088196, 192.0, 255.0, 112.0, 26.0, 0.0, 14.0, 128.0, 0.0, 0.0, 0.0, 1.6057141710520675E9, 2020-11-18 09:42:51.052
77.0, 1999472.25, 1840198.3125, -781729.359375, -741316.5, 128883.9140625, -768118.21875, -497628.140625, -635846.671875, -0.018000001087784767, 0.8320000171661377, 0.46400001645088196, 192.0, 0.0, 0.0, 0.0, 0.0, 0.0, 0.0, 0.0, 0.0, 0.0, 1.6057141710520701E9, 2020-11-18 09:42:51.052
78.0, 2011788.375, 1766497.6875, -778577.765625, -751854.890625, -91373.748046875, -749118.515625, -495783.328125, -705671.015625, -0.018000001087784767, 0.8320000171661377, 0.46400001645088196, 192.0, 0.0, 0.0, 0.0, 0.0, 0.0, 0.0, 0.0, 0.0, 0.0, 1.6057141710520732E9, 2020-11-18 09:42:51.052
79.0, 2005375.125, 1797203.0625, -760310.8125, -705863.578125, -164222.015625, -747969.984375, -482904.9375, -684735.28125, -0.018000001087784767, 0.8320000171661377, 0.46400001645088196, 192.0, 0.0, 0.0, 0.0, 0.0, 0.0, 0.0, 0.0, 0.0, 0.0, 1.6057141710520759E9, 2020-11-18 09:42:51.052
80.0, 1989516.9375, 1876616.25, -755425.453125, -685313.578125, 54961.6875, -769073.625, -480462.0, -610619.953125, -0.018000001087784767, 0.8320000171661377, 0.46400001645088196, 192.0, 0.0, 0.0, 0.0, 0.0, 0.0, 0.0, 0.0, 0.0, 0.0, 1.6057141710520785E9, 2020-11-18 09:42:51.052
81.0, 1996443.9375, 1855099.125, -778523.015625, -732823.03125, 152060.34375, -771128.203125, -495699.09375, -622804.171875, -0.018000001087784767, 0.8320000171661377, 0.46400001645088196, 192.0, 0.0, 0.0, 0.0, 0.0, 0.0, 0.0, 0.0, 0.0, 0.0, 1.6057141710520813E9, 2020-11-18 09:42:51.052
82.0, 2011448.25, 1773097.5, -781622.578125, -756967.734375, -52587.931640625, -751748.15625, -497890.453125, -698308.359375, -0.018000001087784767, 0.8320000171661377, 0.46400001645088196, 192.0, 0.0, 0.0, 0.0, 0.0, 0.0, 0.0, 0.0, 0.0, 0.0, 1.6057141710520844E9, 2020-11-18 09:42:51.052
83.0, 2007807.375, 1785298.3125, -763032.1875, -714340.453125, -170670.046875, -746580.046875, -484914.46875, -694836.515625, -0.018000001087784767, 0.8320000171661377, 0.46400001645088196, 192.0, 0.0, 0.0, 0.0, 0.0, 0.0, 0.0, 0.0, 0.0, 0.0, 1.6057141710520873E9, 2020-11-18 09:42:51.052
84.0, 1991613.9375, 1866397.125, -752903.625, -682588.453125, 5605.281005859375, -764987.015625, -478894.5, -621337.546875, -0.018000001087784767, 0.8320000171661377, 0.46400001645088196, 192.0, 0.0, 0.0, 0.0, 0.0, 0.0, 0.0, 0.0, 0.0, 0.0, 1.60571417105209E9, 2020-11-18 09:42:51.052
85.0, 1994280.0, 1866912.0, -774800.671875, -723302.765625, 160254.4921875, -772672.59375, -492978.796875, -613368.140625, -0.018000001087784767, 0.8300000429153442, 0.46400001645088196, 192.0, 255.0, 112.0, 25.0, 240.0, 14.0, 128.0, 0.0, 0.0, 0.0, 1.6057141710520928E9, 2020-11-18 09:42:51.052
86.0, 2009667.1875, 1783521.0, -783981.328125, -758589.375, -10906.39892578125, -755223.234375, -499094.25, -687572.015625, -0.018000001087784767, 0.8300000429153442, 0.46400001645088196, 192.0, 0.0, 0.0, 0.0, 0.0, 0.0, 0.0, 0.0, 0.0, 0.0, 1.6057141710520957E9, 2020-11-18 09:42:51.052
87.0, 2009197.875, 1775921.8125, -766256.203125, -723485.15625, -166343.109375, -746173.96875, -487116.5625, -702042.0, -0.018000001087784767, 0.8300000429153442, 0.46400001645088196, 192.0, 0.0, 0.0, 0.0, 0.0, 0.0, 0.0, 0.0, 0.0, 0.0, 1.6057141710520985E9, 2020-11-18 09:42:51.052
88.0, 1994279.4375, 1852899.1875, -752506.6875, -683350.21875, -44125.5615234375, -760700.296875, -478606.96875, -634287.75, -0.018000001087784767, 0.8300000429153442, 0.46400001645088196, 192.0, 0.0, 0.0, 0.0, 0.0, 0.0, 0.0, 0.0, 0.0, 0.0, 1.6057141710521011E9, 2020-11-18 09:42:51.052
89.0, 1991901.375, 1876043.8125, -770790.234375, -713795.4375, 159387.59765625, -773861.34375, -490364.71875, -605654.109375, -0.018000001087784767, 0.8300000429153442, 0.46400001645088196, 192.0, 0.0, 0.0, 0.0, 0.0, 0.0, 0.0, 0.0, 0.0, 0.0, 1.605714171052104E9, 2020-11-18 09:42:51.052
90.0, 2007911.4375, 1797327.9375, -784693.171875, -757215.5625, 32638.7314453125, -758658.046875, -499763.15625, -674469.421875, -0.018000001087784767, 0.8300000429153442, 0.46400001645088196, 192.0, 0.0, 0.0, 0.0, 0.0, 0.0, 0.0, 0.0, 0.0, 0.0, 1.6057141710521066E9, 2020-11-18 09:42:51.052
91.0, 2010580.3125, 1769349.375, -768793.59375, -730829.578125, -154119.2109375, -745951.359375, -489211.359375, -706990.640625, -0.018000001087784767, 0.8300000429153442, 0.46400001645088196, 192.0, 0.0, 0.0, 0.0, 0.0, 0.0, 0.0, 0.0, 0.0, 0.0, 1.6057141710521092E9, 2020-11-18 09:42:51.052
92.0, 1997813.4375, 1837652.8125, -753299.015625, -686649.328125, -88503.24609375, -756312.75, -479143.96875, -648950.34375, -0.018000001087784767, 0.8300000429153442, 0.46400001645088196, 192.0, 0.0, 0.0, 0.0, 0.0, 0.0, 0.0, 0.0, 0.0, 0.0, 1.6057141710521119E9, 2020-11-18 09:42:51.052
93.0, 1990745.4375, 1881883.125, -766256.203125, -704397.515625, 146230.828125, -773689.171875, -487566.609375, -602356.078125, -0.018000001087784767, 0.8300000429153442, 0.46400001645088196, 192.0, 0.0, 0.0, 0.0, 0.0, 0.0, 0.0, 0.0, 0.0, 0.0, 1.6057141710521162E9, 2020-11-18 09:42:51.052
94.0, 2005220.25, 1813421.25, -784254.375, -752774.90625, 75527.794921875, -762338.578125, -499528.734375, -659969.90625, -0.018000001087784767, 0.8300000429153442, 0.46400001645088196, 192.0, 0.0, 0.0, 0.0, 0.0, 0.0, 0.0, 0.0, 0.0, 0.0, 1.6057141710521188E9, 2020-11-18 09:42:51.052
95.0, 2011910.625, 1765413.5625, -772160.296875, -739378.3125, -135854.9765625, -746238.375, -491594.765625, -709541.953125, -0.02200000174343586, 0.8320000171661377, 0.4660000205039978, 192.0, 255.0, 80.0, 26.0, 0.0, 14.0, 144.0, 0.0, 0.0, 0.0, 1.6057141710521216E9, 2020-11-18 09:42:51.052
96.0, 2001476.25, 1822026.9375, -754958.765625, -692260.5, -126305.23828125, -752106.46875, -479794.125, -663528.140625, -0.02200000174343586, 0.8320000171661377, 0.4660000205039978, 192.0, 0.0, 0.0, 0.0, 0.0, 0.0, 0.0, 0.0, 0.0, 0.0, 1.6057141710521243E9, 2020-11-18 09:42:51.052
97.0, 1990015.875, 1884084.5625, -761562.328125, -695567.671875, 122249.73046875, -772821.75, -484303.453125, -601814.8125, -0.02200000174343586, 0.8320000171661377, 0.4660000205039978, 192.0, 0.0, 0.0, 0.0, 0.0, 0.0, 0.0, 0.0, 0.0, 0.0, 1.605714171052127E9, 2020-11-18 09:42:51.052
98.0, 2002193.625, 1830039.1875, -782811.328125, -746435.25, 112689.26953125, -765976.171875, -498579.234375, -645108.328125, -0.02200000174343586, 0.8320000171661377, 0.4660000205039978, 192.0, 0.0, 0.0, 0.0, 0.0, 0.0, 0.0, 0.0, 0.0, 0.0, 1.60571417105213E9, 2020-11-18 09:42:51.052
99.0, 2012015.8125, 1764793.3125, -775994.765625, -747391.6875, -109705.58203125, -747862.171875, -494219.578125, -708330.703125, -0.02200000174343586, 0.8320000171661377, 0.4660000205039978, 192.0, 0.0, 0.0, 0.0, 0.0, 0.0, 0.0, 0.0, 0.0, 0.0, 1.6057141710521326E9, 2020-11-18 09:42:51.052
100.0, 2004177.9375, 1806569.25, -758261.109375, -700548.515625, -151722.92578125, -749671.59375, -482069.15625, -676922.015625, -0.02200000174343586, 0.8320000171661377, 0.4660000205039978, 192.0, 0.0, 0.0, 0.0, 0.0, 0.0, 0.0, 0.0, 0.0, 0.0, 1.6057141710521352E9, 2020-11-18 09:42:51.052
101.0, 1989911.25, 1881142.6875, -757403.296875, -688868.578125, 85985.724609375, -770891.625, -482150.71875, -606184.125, -0.02200000174343586, 0.8320000171661377, 0.4660000205039978, 192.0, 0.0, 0.0, 0.0, 0.0, 0.0, 0.0, 0.0, 0.0, 0.0, 1.605714171052138E9, 2020-11-18 09:42:51.052
102.0, 1999236.1875, 1845245.25, -780176.34375, -738697.59375, 138784.4765625, -768948.09375, -497114.765625, -631849.125, -0.02200000174343586, 0.8320000171661377, 0.4660000205039978, 192.0, 0.0, 0.0, 0.0, 0.0, 0.0, 0.0, 0.0, 0.0, 0.0, 1.6057141710521407E9, 2020-11-18 09:42:51.052
103.0, 2012488.875, 1768524.9375, -779073.9375, -753574.734375, -78593.560546875, -749723.625, -496489.265625, -703965.140625, -0.02200000174343586, 0.8320000171661377, 0.4660000205039978, 192.0, 0.0, 0.0, 0.0, 0.0, 0.0, 0.0, 0.0, 0.0, 0.0, 1.6057141710521436E9, 2020-11-18 09:42:51.052
104.0, 2007230.8125, 1793799.375, -760671.84375, -708266.859375, -166206.85546875, -747275.296875, -483602.859375, -688494.703125, -0.02200000174343586, 0.8320000171661377, 0.4660000205039978, 192.0, 0.0, 0.0, 0.0, 0.0, 0.0, 0.0, 0.0, 0.0, 0.0, 1.6057141710521462E9, 2020-11-18 09:42:51.052
105.0, 1990993.6875, 1874329.5, -754055.390625, -683770.78125, 41224.482421875, -767645.0625, -479851.546875, -613889.015625, -0.02200000174343586, 0.8340000510215759, 0.4660000205039978, 192.0, 255.0, 80.0, 26.0, 16.0, 14.0, 144.0, 0.0, 0.0, 0.0, 1.6057141710521493E9, 2020-11-18 09:42:51.052
106.0, 1996276.6875, 1859141.625, -777297.796875, -729904.78125, 156293.40234375, -771640.5, -495039.796875, -619863.375, -0.02200000174343586, 0.8340000510215759, 0.4660000205039978, 192.0, 0.0, 0.0, 0.0, 0.0, 0.0, 0.0, 0.0, 0.0, 0.0, 1.605714171052152E9, 2020-11-18 09:42:51.052
107.0, 2011821.5625, 1776440.625, -781937.484375, -757302.46875, -39876.9404296875, -752446.59375, -498278.296875, -695676.5625, -0.02200000174343586, 0.8340000510215759, 0.4660000205039978, 192.0, 0.0, 0.0, 0.0, 0.0, 0.0, 0.0, 0.0, 0.0, 0.0, 1.6057141710521543E9, 2020-11-18 09:42:51.052
108.0, 2008946.25, 1782828.5625, -763692.5625, -716548.96875, -168776.40234375, -746322.5625, -485689.640625, -697498.3125, -0.02200000174343586, 0.8340000510215759, 0.4660000205039978, 192.0, 0.0, 0.0, 0.0, 0.0, 0.0, 0.0, 0.0, 0.0, 0.0, 1.6057141710521572E9, 2020-11-18 09:42:51.052
109.0, 1993178.625, 1862979.9375, -752370.9375, -682106.203125, -8705.378173828125, -763581.515625, -478919.71875, -625553.4375, -0.02200000174343586, 0.8340000510215759, 0.4660000205039978, 192.0, 0.0, 0.0, 0.0, 0.0, 0.0, 0.0, 0.0, 0.0, 0.0, 1.60571417105216E9, 2020-11-18 09:42:51.052
110.0, 1993918.3125, 1870301.25, -773599.546875, -720461.765625, 162000.609375, -773430.609375, -492541.59375, -610957.359375, -0.02200000174343586, 0.8340000510215759, 0.4660000205039978, 192.0, 0.0, 0.0, 0.0, 0.0, 0.0, 0.0, 0.0, 0.0, 0.0, 1.6057141710521626E9, 2020-11-18 09:42:51.052
111.0, 2009879.25, 1787877.0, -784146.5625, -758512.125, 2622.6641235351562, -756260.71875, -499693.453125, -684257.859375, -0.02200000174343586, 0.8340000510215759, 0.4660000205039978, 192.0, 0.0, 0.0, 0.0, 0.0, 0.0, 0.0, 0.0, 0.0, 0.0, 1.6057141710521653E9, 2020-11-18 09:42:51.052
112.0, 2010542.25, 1774251.375, -766491.703125, -725008.6875, -162891.10546875, -745750.734375, -487737.234375, -704334.75, -0.02200000174343586, 0.8340000510215759, 0.4660000205039978, 192.0, 0.0, 0.0, 0.0, 0.0, 0.0, 0.0, 0.0, 0.0, 0.0, 1.605714171052168E9, 2020-11-18 09:42:51.052
113.0, 1996117.875, 1848809.8125, -752330.203125, -683860.359375, -58128.3046875, -759190.21875, -478618.265625, -639232.171875, -0.02200000174343586, 0.8340000510215759, 0.4660000205039978, 192.0, 0.0, 0.0, 0.0, 0.0, 0.0, 0.0, 0.0, 0.0, 0.0, 1.6057141710521708E9, 2020-11-18 09:42:51.052
114.0, 1992168.5625, 1878591.375, -769288.734375, -710953.875, 156492.421875, -773792.671875, -489466.6875, -604744.828125, -0.02200000174343586, 0.8340000510215759, 0.4660000205039978, 192.0, 0.0, 0.0, 0.0, 0.0, 0.0, 0.0, 0.0, 0.0, 0.0, 1.6057141710521736E9, 2020-11-18 09:42:51.052
115.0, 2007675.9375, 1802578.125, -784554.234375, -756174.84375, 46208.5634765625, -759646.734375, -499693.96875, -670365.609375, -0.014000000432133675, 0.8400000333786011, 0.46400001645088196, 192.0, 255.0, 144.0, 26.0, 64.0, 14.0, 128.0, 0.0, 0.0, 0.0, 1.6057141710521765E9, 2020-11-18 09:42:51.052
116.0, 2011650.5625, 1767933.75, -769683.5625, -733919.484375, -150572.7890625, -745825.3125, -489889.40625, -708559.734375, -0.014000000432133675, 0.8400000333786011, 0.46400001645088196, 192.0, 0.0, 0.0, 0.0, 0.0, 0.0, 0.0, 0.0, 0.0, 0.0, 1.605714171052179E9, 2020-11-18 09:42:51.052
117.0, 1999291.5, 1832923.6875, -753582.796875, -688926.515625, -102731.8359375, -754797.796875, -479167.03125, -653808.890625, -0.014000000432133675, 0.8400000333786011, 0.46400001645088196, 192.0, 0.0, 0.0, 0.0, 0.0, 0.0, 0.0, 0.0, 0.0, 0.0, 1.6057141710521836E9, 2020-11-18 09:42:51.052
118.0, 1990687.875, 1883089.5, -764735.390625, -701840.8125, 138726.01171875, -773430.609375, -486422.390625, -602006.859375, -0.014000000432133675, 0.8400000333786011, 0.46400001645088196, 192.0, 0.0, 0.0, 0.0, 0.0, 0.0, 0.0, 0.0, 0.0, 0.0, 1.6057141710521865E9, 2020-11-18 09:42:51.052
119.0, 2004699.1875, 1818518.0625, -784029.09375, -751147.875, 85969.634765625, -763285.921875, -499266.984375, -655550.15625, -0.014000000432133675, 0.8400000333786011, 0.46400001645088196, 192.0, 0.0, 0.0, 0.0, 0.0, 0.0, 0.0, 0.0, 0.0, 0.0, 1.605714171052189E9, 2020-11-18 09:42:51.052
120.0, 2012211.0, 1764769.3125, -773587.78125, -742297.125, -130935.2578125, -746476.546875, -492397.3125, -709612.78125, -0.014000000432133675, 0.8400000333786011, 0.46400001645088196, 192.0, 0.0, 0.0, 0.0, 0.0, 0.0, 0.0, 0.0, 0.0, 0.0, 1.605714171052192E9, 2020-11-18 09:42:51.052
121.0, 2002729.5, 1817148.9375, -756151.78125, -695140.640625, -137831.75390625, -750794.90625, -480429.796875, -668047.125, -0.014000000432133675, 0.8400000333786011, 0.46400001645088196, 192.0, 0.0, 0.0, 0.0, 0.0, 0.0, 0.0, 0.0, 0.0, 0.0, 1.6057141715314772E9, 2020-11-18 09:42:51.531
122.0, 1990392.9375, 1883980.5, -760085.53125, -693169.21875, 109902.4453125, -771739.734375, -483230.015625, -602827.59375, -0.014000000432133675, 0.8400000333786011, 0.46400001645088196, 192.0, 0.0, 0.0, 0.0, 0.0, 0.0, 0.0, 0.0, 0.0, 0.0, 1.6057141715315545E9, 2020-11-18 09:42:51.531
123.0, 2001505.3125, 1835870.25, -781910.671875, -743884.453125, 122166.046875, -766734.703125, -497776.734375, -640095.84375, -0.014000000432133675, 0.8400000333786011, 0.46400001645088196, 192.0, 0.0, 0.0, 0.0, 0.0, 0.0, 0.0, 0.0, 0.0, 0.0, 1.6057141715315654E9, 2020-11-18 09:42:51.531
124.0, 2012557.6875, 1765963.875, -777394.875, -750252.5625, -100439.07421875, -748221.5625, -495112.78125, -706856.53125, -0.012000000104308128, 0.8280000686645508, 0.4620000123977661, 192.0, 255.0, 160.0, 25.0, 224.0, 14.0, 112.0, 0.0, 0.0, 0.0, 1.6057141715315707E9, 2020-11-18 09:42:51.531
125.0, 2005444.3125, 1802071.6875, -759278.203125, -703296.1875, -160470.6796875, -748530.5625, -482705.390625, -680924.953125, -0.012000000104308128, 0.8280000686645508, 0.4620000123977661, 192.0, 0.0, 0.0, 0.0, 0.0, 0.0, 0.0, 0.0, 0.0, 0.0, 1.6057141715315745E9, 2020-11-18 09:42:51.531
126.0, 1990317.75, 1879445.4375, -756354.5625, -687049.5, 70919.220703125, -769828.40625, -481384.125, -608068.640625, -0.012000000104308128, 0.8280000686645508, 0.4620000123977661, 192.0, 0.0, 0.0, 0.0, 0.0, 0.0, 0.0, 0.0, 0.0, 0.0, 1.6057141715315828E9, 2020-11-18 09:42:51.531
127.0, 1998381.5625, 1849540.5, -779729.484375, -736672.5, 143254.65234375, -769968.9375, -496611.5625, -627873.515625, -0.012000000104308128, 0.8280000686645508, 0.4620000123977661, 192.0, 0.0, 0.0, 0.0, 0.0, 0.0, 0.0, 0.0, 0.0, 0.0, 1.6057141715315883E9, 2020-11-18 09:42:51.531
128.0, 2012240.625, 1770068.25, -780525.046875, -755954.90625, -70087.734375, -750621.09375, -497241.890625, -701757.140625, -0.012000000104308128, 0.8280000686645508, 0.4620000123977661, 192.0, 0.0, 0.0, 0.0, 0.0, 0.0, 0.0, 0.0, 0.0, 0.0, 1.6057141715315974E9, 2020-11-18 09:42:51.531
129.0, 2007545.0625, 1789821.0, -762170.671875, -711752.109375, -170078.8828125, -747222.703125, -484447.78125, -691132.359375, -0.012000000104308128, 0.8280000686645508, 0.4620000123977661, 192.0, 0.0, 0.0, 0.0, 0.0, 0.0, 0.0, 0.0, 0.0, 0.0, 1.6057141715316024E9, 2020-11-18 09:42:51.531
130.0, 1991712.5625, 1870963.875, -753746.390625, -683551.359375, 24088.38427734375, -766486.359375, -479662.171875, -617032.03125, -0.012000000104308128, 0.8280000686645508, 0.4620000123977661, 192.0, 0.0, 0.0, 0.0, 0.0, 0.0, 0.0, 0.0, 0.0, 0.0, 1.6057141715316072E9, 2020-11-18 09:42:51.531
131.0, 1995716.0625, 1862547.5625, -776616.0, -727607.71875, 156393.71484375, -772137.75, -494326.875, -616856.109375, -0.012000000104308128, 0.8280000686645508, 0.4620000123977661, 192.0, 0.0, 0.0, 0.0, 0.0, 0.0, 0.0, 0.0, 0.0, 0.0, 1.6057141715316124E9, 2020-11-18 09:42:51.531
132.0, 2011079.625, 1779120.5625, -783456.140625, -759175.734375, -30554.1181640625, -753661.640625, -498941.34375, -692470.78125, -0.012000000104308128, 0.8280000686645508, 0.4620000123977661, 192.0, 0.0, 0.0, 0.0, 0.0, 0.0, 0.0, 0.0, 0.0, 0.0, 1.605714171531616E9, 2020-11-18 09:42:51.531
133.0, 2009157.1875, 1779663.5625, -765209.625, -720314.8125, -170265.03515625, -746352.609375, -486429.890625, -699649.453125, -0.012000000104308128, 0.8280000686645508, 0.4620000123977661, 192.0, 0.0, 0.0, 0.0, 0.0, 0.0, 0.0, 0.0, 0.0, 0.0, 1.6057141715316193E9, 2020-11-18 09:42:51.531
134.0, 1993708.6875, 1858504.3125, -752809.78125, -683167.265625, -25596.322265625, -762453.375, -478989.984375, -629306.390625, -0.01600000075995922, 0.8280000686645508, 0.46800002455711365, 192.0, 255.0, 128.0, 25.0, 224.0, 14.0, 160.0, 0.0, 0.0, 0.0, 1.6057141715316255E9, 2020-11-18 09:42:51.531
135.0, 1993111.6875, 1872891.75, -772892.53125, -718364.296875, 160869.2578125, -773711.671875, -491990.671875, -608447.34375, -0.01600000075995922, 0.8280000686645508, 0.46800002455711365, 192.0, 0.0, 0.0, 0.0, 0.0, 0.0, 0.0, 0.0, 0.0, 0.0, 1.605714171531628E9, 2020-11-18 09:42:51.531
136.0, 2009158.6875, 1791591.9375, -785119.125, -759323.765625, 14211.95361328125, -757410.28125, -500222.34375, -680258.671875, -0.01600000075995922, 0.8280000686645508, 0.46800002455711365, 192.0, 0.0, 0.0, 0.0, 0.0, 0.0, 0.0, 0.0, 0.0, 0.0, 1.6057141715316305E9, 2020-11-18 09:42:51.531
137.0, 2010597.0, 1771671.0, -768017.90625, -728719.78125, -161608.4765625, -745936.875, -488722.640625, -705895.265625, -0.01600000075995922, 0.8280000686645508, 0.46800002455711365, 192.0, 0.0, 0.0, 0.0, 0.0, 0.0, 0.0, 0.0, 0.0, 0.0, 1.6057141715316346E9, 2020-11-18 09:42:51.531
138.0, 1996934.8125, 1843555.3125, -752950.3125, -685796.390625, -73633.078125, -757892.015625, -478947.09375, -643663.6875, -0.01600000075995922, 0.8280000686645508, 0.46800002455711365, 192.0, 0.0, 0.0, 0.0, 0.0, 0.0, 0.0, 0.0, 0.0, 0.0, 1.6057141715316396E9, 2020-11-18 09:42:51.531
139.0, 1991327.4375, 1879836.5625, -768421.828125, -708924.515625, 151806.0703125, -774263.15625, -488885.71875, -603307.734375, -0.01600000075995922, 0.8280000686645508, 0.46800002455711365, 192.0, 0.0, 0.0, 0.0, 0.0, 0.0, 0.0, 0.0, 0.0, 0.0, 1.6057141715316436E9, 2020-11-18 09:42:51.531
140.0, 2006577.375, 1807098.1875, -784979.625, -756081.0, 58722.6796875, -761284.453125, -499995.984375, -665729.15625, -0.01600000075995922, 0.8280000686645508, 0.46800002455711365, 192.0, 0.0, 0.0, 0.0, 0.0, 0.0, 0.0, 0.0, 0.0, 0.0, 1.6057141715317562E9, 2020-11-18 09:42:51.531
141.0, 2011539.9375, 1766287.875, -771293.390625, -737816.203125, -145364.47265625, -746587.03125, -491067.46875, -709180.40625, -0.01600000075995922, 0.8280000686645508, 0.46800002455711365, 192.0, 0.0, 0.0, 0.0, 0.0, 0.0, 0.0, 0.0, 0.0, 0.0, 1.6057141715317688E9, 2020-11-18 09:42:51.531
142.0, 2000277.375, 1827626.8125, -754482.9375, -691525.03125, -114280.34765625, -754036.078125, -479829.515625, -658224.890625, -0.01600000075995922, 0.8280000686645508, 0.46800002455711365, 192.0, 0.0, 0.0, 0.0, 0.0, 0.0, 0.0, 0.0, 0.0, 0.0, 1.605714171531777E9, 2020-11-18 09:42:51.531
143.0, 1990343.625, 1883458.5, -763647.515625, -699939.140625, 133138.96875, -773748.703125, -485808.1875, -601404.421875, -0.01600000075995922, 0.8280000686645508, 0.46800002455711365, 192.0, 0.0, 0.0, 0.0, 0.0, 0.0, 0.0, 0.0, 0.0, 0.0, 1.6057141715317843E9, 2020-11-18 09:42:51.531
144.0, 2003855.4375, 1823359.3125, -783746.90625, -750151.6875, 98592.10546875, -764818.546875, -499181.15625, -650877.75, -0.024000000208616257, 0.8260000348091125, 0.4700000286102295, 192.0, 255.0, 64.0, 25.0, 208.0, 14.0, 176.0, 0.0, 0.0, 0.0, 1.6057141715317924E9, 2020-11-18 09:42:51.531
145.0, 2012833.3125, 1764695.8125, -774261.0, -745487.34375, -122498.63671875, -747025.828125, -493059.796875, -709524.796875, -0.024000000208616257, 0.8260000348091125, 0.4700000286102295, 192.0, 0.0, 0.0, 0.0, 0.0, 0.0, 0.0, 0.0, 0.0, 0.0, 1.6057141715318024E9, 2020-11-18 09:42:51.531
146.0, 2003513.25, 1812255.5625, -756967.171875, -698073.9375, -144219.703125, -750686.53125, -481166.34375, -671954.578125, -0.024000000208616257, 0.8260000348091125, 0.4700000286102295, 192.0, 0.0, 0.0, 0.0, 0.0, 0.0, 0.0, 0.0, 0.0, 0.0, 1.6057141715318084E9, 2020-11-18 09:42:51.531
147.0, 1990042.125, 1882604.0625, -758928.9375, -691579.21875, 101712.59765625, -772074.984375, -482978.4375, -603742.21875, -0.024000000208616257, 0.8260000348091125, 0.4700000286102295, 192.0, 0.0, 0.0, 0.0, 0.0, 0.0, 0.0, 0.0, 0.0, 0.0, 1.6057141715318177E9, 2020-11-18 09:42:51.531
148.0, 2000205.5625, 1840011.1875, -781361.90625, -742513.828125, 133526.2734375, -768544.6875, -497787.984375, -635840.765625, -0.024000000208616257, 0.8260000348091125, 0.4700000286102295, 192.0, 0.0, 0.0, 0.0, 0.0, 0.0, 0.0, 0.0, 0.0, 0.0, 1.6057141715318232E9, 2020-11-18 09:42:51.531
149.0, 2013096.75, 1767113.4375, -777833.15625, -752579.109375, -88678.6640625, -748791.796875, -495590.203125, -705945.65625, -0.024000000208616257, 0.8260000348091125, 0.4700000286102295, 192.0, 0.0, 0.0, 0.0, 0.0, 0.0, 0.0, 0.0, 0.0, 0.0, 1.605714171531837E9, 2020-11-18 09:42:51.531
150.0, 2006719.5, 1798032.9375, -759490.078125, -705948.375, -162755.37890625, -747798.328125, -482592.1875, -684738.515625, -0.024000000208616257, 0.8260000348091125, 0.4700000286102295, 192.0, 0.0, 0.0, 0.0, 0.0, 0.0, 0.0, 0.0, 0.0, 0.0, 1.6057141715318477E9, 2020-11-18 09:42:51.531
151.0, 1990690.125, 1876985.4375, -755189.953125, -685920.84375, 59882.466796875, -769166.4375, -480341.8125, -610485.328125, -0.024000000208616257, 0.8260000348091125, 0.4700000286102295, 192.0, 0.0, 0.0, 0.0, 0.0, 0.0, 0.0, 0.0, 0.0, 0.0, 1.60571417153186E9, 2020-11-18 09:42:51.531
152.0, 1997647.125, 1853464.5, -778680.1875, -734320.21875, 150991.74609375, -770780.578125, -495732.890625, -624274.546875, -0.024000000208616257, 0.8260000348091125, 0.4700000286102295, 192.0, 0.0, 0.0, 0.0, 0.0, 0.0, 0.0, 0.0, 0.0, 0.0, 1.6057141715318656E9, 2020-11-18 09:42:51.531
153.0, 2012238.9375, 1772359.3125, -781059.328125, -757375.40625, -56866.59375, -751448.296875, -497491.359375, -699285.1875, -0.024000000208616257, 0.8260000348091125, 0.4700000286102295, 192.0, 0.0, 0.0, 0.0, 0.0, 0.0, 0.0, 0.0, 0.0, 0.0, 1.6057141715318725E9, 2020-11-18 09:42:51.531
154.0, 2008355.0625, 1786677.5625, -762604.640625, -714471.890625, -167885.91796875, -746858.484375, -484493.90625, -693780.796875, -0.02800000086426735, 0.8320000171661377, 0.4700000286102295, 192.0, 255.0, 32.0, 26.0, 0.0, 14.0, 176.0, 0.0, 0.0, 0.0, 1.6057141715318785E9, 2020-11-18 09:42:51.531
155.0, 1992424.875, 1867425.375, -752688.0, -683123.296875, 12787.70068359375, -765184.40625, -478634.34375, -620259.28125, -0.02800000086426735, 0.8320000171661377, 0.4700000286102295, 192.0, 0.0, 0.0, 0.0, 0.0, 0.0, 0.0, 0.0, 0.0, 0.0, 1.6057141715318837E9, 2020-11-18 09:42:51.531
156.0, 1995061.5, 1865974.3125, -774712.171875, -724736.671875, 162990.87890625, -772468.734375, -492913.875, -613617.609375, -0.02800000086426735, 0.8320000171661377, 0.4700000286102295, 192.0, 0.0, 0.0, 0.0, 0.0, 0.0, 0.0, 0.0, 0.0, 0.0, 1.605714171531888E9, 2020-11-18 09:42:51.531
157.0, 2010801.75, 1782768.375, -783155.203125, -759632.25, -13029.6357421875, -754456.640625, -498729.984375, -688547.765625, -0.02800000086426735, 0.8320000171661377, 0.4700000286102295, 192.0, 0.0, 0.0, 0.0, 0.0, 0.0, 0.0, 0.0, 0.0, 0.0, 1.6057141715318916E9, 2020-11-18 09:42:51.531
158.0, 2009781.5625, 1776951.75, -765241.265625, -722966.4375, -165180.10546875, -745810.265625, -486370.921875, -701470.6875, -0.02800000086426735, 0.8320000171661377, 0.4700000286102295, 192.0, 0.0, 0.0, 0.0, 0.0, 0.0, 0.0, 0.0, 0.0, 0.0, 1.6057141715318964E9, 2020-11-18 09:42:51.531
159.0, 1994694.1875, 1853913.0, -752063.015625, -683688.140625, -37815.3955078125, -760921.828125, -478177.3125, -633204.140625, -0.02800000086426735, 0.8320000171661377, 0.4700000286102295, 192.0, 0.0, 0.0, 0.0, 0.0, 0.0, 0.0, 0.0, 0.0, 0.0, 1.6057141715318987E9, 2020-11-18 09:42:51.531
160.0, 1992884.625, 1875364.3125, -770795.0625, -715269.046875, 162026.89453125, -773530.921875, -490193.578125, -606462.0, -0.02800000086426735, 0.8320000171661377, 0.4700000286102295, 192.0, 0.0, 0.0, 0.0, 0.0, 0.0, 0.0, 0.0, 0.0, 0.0, 1.6057141715319052E9, 2020-11-18 09:42:51.531
161.0, 2008694.625, 1796337.75, -784518.84375, -758733.703125, 30349.1982421875, -758251.453125, -499317.375, -675762.75, -0.02800000086426735, 0.8320000171661377, 0.4700000286102295, 192.0, 0.0, 0.0, 0.0, 0.0, 0.0, 0.0, 0.0, 0.0, 0.0, 1.6057141715319097E9, 2020-11-18 09:42:51.531
162.0, 2010956.8125, 1769811.75, -768655.734375, -731960.4375, -155202.8203125, -746070.46875, -488737.125, -706770.703125, -0.02800000086426735, 0.8320000171661377, 0.4700000286102295, 192.0, 0.0, 0.0, 0.0, 0.0, 0.0, 0.0, 0.0, 0.0, 0.0, 1.605714171531912E9, 2020-11-18 09:42:51.531
163.0, 1997900.4375, 1838642.625, -753084.9375, -687425.53125, -84997.06640625, -756770.296875, -478639.6875, -647726.15625, -0.02800000086426735, 0.8420000672340393, 0.47200003266334534, 192.0, 255.0, 32.0, 26.0, 80.0, 14.0, 192.0, 0.0, 0.0, 0.0, 1.6057141715319488E9, 2020-11-18 09:42:51.531
164.0, 1991287.125, 1881378.1875, -766455.234375, -706029.890625, 148640.53125, -773921.4375, -487392.84375, -602196.1875, -0.02800000086426735, 0.8420000672340393, 0.47200003266334534, 192.0, 0.0, 0.0, 0.0, 0.0, 0.0, 0.0, 0.0, 0.0, 0.0, 1.6057141715319548E9, 2020-11-18 09:42:51.531
165.0, 2006112.1875, 1812019.5, -784092.375, -754676.0625, 71768.947265625, -761908.359375, -499143.5625, -660951.09375, -0.02800000086426735, 0.8420000672340393, 0.47200003266334534, 192.0, 0.0, 0.0, 0.0, 0.0, 0.0, 0.0, 0.0, 0.0, 0.0, 1.6057141715319593E9, 2020-11-18 09:42:51.531
166.0, 2012049.5625, 1765536.375, -771654.984375, -740278.5, -138915.375, -746394.46875, -490909.734375, -709130.53125, -0.02800000086426735, 0.8420000672340393, 0.47200003266334534, 192.0, 0.0, 0.0, 0.0, 0.0, 0.0, 0.0, 0.0, 0.0, 0.0, 1.6057141715319624E9, 2020-11-18 09:42:51.531
167.0, 2001041.25, 1822700.0625, -755136.84375, -693324.28125, -124111.72265625, -753041.53125, -479791.96875, -662037.890625, -0.02800000086426735, 0.8420000672340393, 0.47200003266334534, 192.0, 0.0, 0.0, 0.0, 0.0, 0.0, 0.0, 0.0, 0.0, 0.0, 1.6057141715319648E9, 2020-11-18 09:42:51.531
168.0, 1990017.375, 1883384.0625, -762172.265625, -697222.03125, 124371.36328125, -773193.46875, -484724.015625, -601605.046875, -0.02800000086426735, 0.8420000672340393, 0.47200003266334534, 192.0, 0.0, 0.0, 0.0, 0.0, 0.0, 0.0, 0.0, 0.0, 0.0, 1.6057141715319679E9, 2020-11-18 09:42:51.531
169.0, 2002886.625, 1827965.25, -782959.40625, -748226.390625, 107137.62890625, -765474.609375, -498539.015625, -646593.75, -0.02800000086426735, 0.8420000672340393, 0.47200003266334534, 192.0, 0.0, 0.0, 0.0, 0.0, 0.0, 0.0, 0.0, 0.0, 0.0, 1.6057141715319922E9, 2020-11-18 09:42:51.531
170.0, 2012733.5625, 1764560.625, -775233.046875, -747828.890625, -116489.42578125, -747234.0, -493521.65625, -708819.9375, -0.02800000086426735, 0.8420000672340393, 0.47200003266334534, 192.0, 0.0, 0.0, 0.0, 0.0, 0.0, 0.0, 0.0, 0.0, 0.0, 1.6057141715319977E9, 2020-11-18 09:42:51.531
171.0, 2004481.5, 1807509.75, -757730.015625, -701060.296875, -154148.70703125, -749371.171875, -481161.0, -675794.4375, -0.02800000086426735, 0.8420000672340393, 0.47200003266334534, 192.0, 0.0, 0.0, 0.0, 0.0, 0.0, 0.0, 0.0, 0.0, 0.0, 1.6057141715320015E9, 2020-11-18 09:42:51.532
172.0, 1990030.875, 1881231.75, -757731.609375, -689665.734375, 86697.046875, -770877.65625, -481607.296875, -604982.484375, -0.02800000086426735, 0.8420000672340393, 0.47200003266334534, 192.0, 0.0, 0.0, 0.0, 0.0, 0.0, 0.0, 0.0, 0.0, 0.0, 1.605714171532014E9, 2020-11-18 09:42:51.532
173.0, 1999704.9375, 1844861.0625, -780294.375, -739440.5625, 137839.265625, -768485.671875, -496477.453125, -631614.65625, -0.02800000086426735, 0.8380000591278076, 0.47200003266334534, 192.0, 255.0, 32.0, 26.0, 48.0, 14.0, 192.0, 0.0, 0.0, 0.0, 1.6057141715320284E9, 2020-11-18 09:42:51.532
174.0, 2012970.75, 1768495.875, -778953.28125, -754502.25, -81633.041015625, -748999.96875, -495686.203125, -703728.5625, -0.02800000086426735, 0.8380000591278076, 0.47200003266334534, 192.0, 0.0, 0.0, 0.0, 0.0, 0.0, 0.0, 0.0, 0.0, 0.0, 1.6057141715320363E9, 2020-11-18 09:42:51.532
175.0, 2007241.5, 1793780.0625, -760653.09375, -708933.09375, -170676.48046875, -746789.8125, -482918.90625, -687809.109375, -0.02800000086426735, 0.8380000591278076, 0.47200003266334534, 192.0, 0.0, 0.0, 0.0, 0.0, 0.0, 0.0, 0.0, 0.0, 0.0, 1.6057141715320556E9, 2020-11-18 09:42:51.532
176.0, 1991162.25, 1874185.125, -754197.0, -684433.265625, 39863.53125, -767289.421875, -479364.984375, -613147.125, -0.02800000086426735, 0.8380000591278076, 0.47200003266334534, 192.0, 0.0, 0.0, 0.0, 0.0, 0.0, 0.0, 0.0, 0.0, 0.0, 1.6057141715320697E9, 2020-11-18 09:42:51.532
177.0, 1997034.0, 1857559.125, -777350.90625, -730996.96875, 149918.87109375, -770613.1875, -494435.765625, -620472.234375, -0.02800000086426735, 0.8380000591278076, 0.47200003266334534, 192.0, 0.0, 0.0, 0.0, 0.0, 0.0, 0.0, 0.0, 0.0, 0.0, 1.6057141715320811E9, 2020-11-18 09:42:51.532
178.0, 2012025.0, 1775255.625, -781635.984375, -758124.28125, -49427.21484375, -751573.265625, -497392.640625, -695847.703125, -0.02800000086426735, 0.8380000591278076, 0.47200003266334534, 192.0, 0.0, 0.0, 0.0, 0.0, 0.0, 0.0, 0.0, 0.0, 0.0, 1.605714171532087E9, 2020-11-18 09:42:51.532
179.0, 2008906.5, 1783162.125, -763348.6875, -716932.546875, -174580.7109375, -745754.484375, -484722.9375, -695984.484375, -0.02800000086426735, 0.8380000591278076, 0.47200003266334534, 192.0, 0.0, 0.0, 0.0, 0.0, 0.0, 0.0, 0.0, 0.0, 0.0, 1.6057141715321023E9, 2020-11-18 09:42:51.532
180.0, 1993123.875, 1863082.3125, -752474.484375, -682806.234375, -10139.287353515625, -763181.859375, -478230.375, -623661.375, -0.02800000086426735, 0.8380000591278076, 0.47200003266334534, 192.0, 0.0, 0.0, 0.0, 0.0, 0.0, 0.0, 0.0, 0.0, 0.0, 1.6057141715321093E9, 2020-11-18 09:42:51.532
181.0, 1994563.6875, 1868869.5, -773689.6875, -721678.453125, 156167.8828125, -772180.6875, -491952.5625, -610806.65625, -0.02800000086426735, 0.8380000591278076, 0.47200003266334534, 192.0, 0.0, 0.0, 0.0, 0.0, 0.0, 0.0, 0.0, 0.0, 0.0, 1.6057141715321128E9, 2020-11-18 09:42:51.532
182.0, 2010402.1875, 1786594.875, -783801.609375, -759429.46875, -7098.198486328125, -755017.78125, -498832.453125, -684326.53125, -0.02800000086426735, 0.8380000591278076, 0.47200003266334534, 192.0, 0.0, 0.0, 0.0, 0.0, 0.0, 0.0, 0.0, 0.0, 0.0, 1.6057141715321236E9, 2020-11-18 09:42:51.532
183.0, 2010510.5625, 1774253.4375, -766401.046875, -725527.40625, -170755.875, -745190.671875, -487087.59375, -703080.515625, -0.018000001087784767, 0.8280000686645508, 0.4740000367164612, 192.0, 255.0, 112.0, 25.0, 224.0, 14.0, 208.0, 0.0, 0.0, 0.0, 1.6057141715321317E9, 2020-11-18 09:42:51.532
184.0, 1995985.3125, 1849128.9375, -752290.5, -684050.25, -60791.736328125, -758849.015625, -478211.625, -637352.4375, -0.018000001087784767, 0.8280000686645508, 0.4740000367164612, 192.0, 0.0, 0.0, 0.0, 0.0, 0.0, 0.0, 0.0, 0.0, 0.0, 1.60571417153214E9, 2020-11-18 09:42:51.532
185.0, 1992622.875, 1877449.3125, -769483.453125, -711737.109375, 152437.9921875, -773021.8125, -489171.65625, -604070.53125, -0.018000001087784767, 0.8280000686645508, 0.4740000367164612, 192.0, 0.0, 0.0, 0.0, 0.0, 0.0, 0.0, 0.0, 0.0, 0.0, 1.605714171532143E9, 2020-11-18 09:42:51.532
186.0, 2008385.25, 1800810.5625, -784558.546875, -757306.21875, 36715.6904296875, -758643.5625, -499257.328125, -670668.1875, -0.018000001087784767, 0.8280000686645508, 0.4740000367164612, 192.0, 0.0, 0.0, 0.0, 0.0, 0.0, 0.0, 0.0, 0.0, 0.0, 1.6057141715322232E9, 2020-11-18 09:42:51.532
187.0, 2011776.5625, 1768233.5625, -769309.125, -733807.40625, -157600.7109375, -745206.796875, -489279.46875, -707368.828125, -0.018000001087784767, 0.8280000686645508, 0.4740000367164612, 192.0, 0.0, 0.0, 0.0, 0.0, 0.0, 0.0, 0.0, 0.0, 0.0, 1.6057141715322545E9, 2020-11-18 09:42:51.532
188.0, 1999395.5625, 1833680.0625, -753365.53125, -688274.203125, -104448.4453125, -754464.140625, -478807.59375, -651944.203125, -0.018000001087784767, 0.8280000686645508, 0.4740000367164612, 192.0, 0.0, 0.0, 0.0, 0.0, 0.0, 0.0, 0.0, 0.0, 0.0, 1.6057141715323038E9, 2020-11-18 09:42:51.532
189.0, 1991461.5, 1882084.3125, -764959.078125, -702444.328125, 135313.69921875, -772828.6875, -486361.265625, -601480.59375, -0.018000001087784767, 0.8280000686645508, 0.4740000367164612, 192.0, 0.0, 0.0, 0.0, 0.0, 0.0, 0.0, 0.0, 0.0, 0.0, 1.6057141715325098E9, 2020-11-18 09:42:51.532
190.0, 2005268.4375, 1816553.625, -784109.53125, -752460.0, 76986.9140625, -762657.75, -499098.515625, -656125.265625, -0.018000001087784767, 0.8280000686645508, 0.4740000367164612, 192.0, 0.0, 0.0, 0.0, 0.0, 0.0, 0.0, 0.0, 0.0, 0.0, 1.6057141715325344E9, 2020-11-18 09:42:51.532
191.0, 2012409.0, 1764557.25, -773068.5, -742399.03125, -138599.94140625, -746190.609375, -491983.6875, -709041.46875, -0.018000001087784767, 0.8280000686645508, 0.4740000367164612, 192.0, 0.0, 0.0, 0.0, 0.0, 0.0, 0.0, 0.0, 0.0, 0.0, 1.605714171532539E9, 2020-11-18 09:42:51.532
192.0, 2002624.3125, 1817812.6875, -755677.03125, -694763.015625, -140416.875, -750913.453125, -480063.9375, -666310.125, -0.018000001087784767, 0.8280000686645508, 0.4740000367164612, 192.0, 0.0, 0.0, 0.0, 0.0, 0.0, 0.0, 0.0, 0.0, 0.0, 1.605714171532544E9, 2020-11-18 09:42:51.532
193.0, 1990359.1875, 1883111.0625, -760465.875, -693977.109375, 108820.98046875, -771795.515625, -483436.546875, -601890.984375, -0.01600000075995922, 0.8260000348091125, 0.47200003266334534, 192.0, 255.0, 128.0, 25.0, 208.0, 14.0, 192.0, 0.0, 0.0, 0.0, 1.6057141715325475E9, 2020-11-18 09:42:51.532
194.0, 2002109.8125, 1833059.4375, -782274.890625, -745318.875, 113110.37109375, -765937.59375, -497901.1875, -641242.21875, -0.01600000075995922, 0.8260000348091125, 0.47200003266334534, 192.0, 0.0, 0.0, 0.0, 0.0, 0.0, 0.0, 0.0, 0.0, 0.0, 1.60571417153255E9, 2020-11-18 09:42:51.532
195.0, 2012632.125, 1764817.5, -776838.046875, -750054.609375, -111063.31640625, -747624.0, -494539.828125, -707108.671875, -0.01600000075995922, 0.8260000348091125, 0.47200003266334534, 192.0, 0.0, 0.0, 0.0, 0.0, 0.0, 0.0, 0.0, 0.0, 0.0, 1.6057141715325537E9, 2020-11-18 09:42:51.532
196.0, 2004939.5625, 1802662.3125, -759084.0, -703070.859375, -163318.11328125, -748848.140625, -482303.578125, -679326.375, -0.01600000075995922, 0.8260000348091125, 0.47200003266334534, 192.0, 0.0, 0.0, 0.0, 0.0, 0.0, 0.0, 0.0, 0.0, 0.0, 1.6057141715325584E9, 2020-11-18 09:42:51.532
197.0, 1990049.625, 1879023.75, -756936.09375, -687757.078125, 70733.07421875, -770071.921875, -481521.984375, -607022.578125, -0.01600000075995922, 0.8260000348091125, 0.47200003266334534, 192.0, 0.0, 0.0, 0.0, 0.0, 0.0, 0.0, 0.0, 0.0, 0.0, 1.6057141715325613E9, 2020-11-18 09:42:51.532
198.0, 1998440.625, 1847796.0, -780254.671875, -737610.75, 138607.453125, -769656.703125, -496802.53125, -628192.734375, -0.01600000075995922, 0.8260000348091125, 0.47200003266334534, 192.0, 0.0, 0.0, 0.0, 0.0, 0.0, 0.0, 0.0, 0.0, 0.0, 1.6057141715325637E9, 2020-11-18 09:42:51.532
199.0, 2012288.8125, 1769268.375, -780636.09375, -756473.671875, -76537.916015625, -750256.3125, -497243.484375, -701970.65625, -0.01600000075995922, 0.8260000348091125, 0.47200003266334534, 192.0, 0.0, 0.0, 0.0, 0.0, 0.0, 0.0, 0.0, 0.0, 0.0, 1.6057141715325663E9, 2020-11-18 09:42:51.532
200.0, 2007637.3125, 1790244.9375, -762182.484375, -711700.078125, -173949.31640625, -747026.90625, -484334.015625, -690559.453125, -0.01600000075995922, 0.8260000348091125, 0.47200003266334534, 192.0, 0.0, 0.0, 0.0, 0.0, 0.0, 0.0, 0.0, 0.0, 0.0, 1.60571417153257E9, 2020-11-18 09:42:51.532
201.0, 1991645.4375, 1870968.5625, -754142.296875, -683909.15625, 24888.2197265625, -766720.78125, -479790.890625, -616230.609375, -0.01600000075995922, 0.8260000348091125, 0.47200003266334534, 192.0, 0.0, 0.0, 0.0, 0.0, 0.0, 0.0, 0.0, 0.0, 0.0, 1.6057141715325727E9, 2020-11-18 09:42:51.532
202.0, 1996446.75, 1861304.625, -776570.390625, -728179.03125, 153889.078125, -771349.21875, -494270.015625, -617462.8125, -0.01600000075995922, 0.8260000348091125, 0.47200003266334534, 192.0, 0.0, 0.0, 0.0, 0.0, 0.0, 0.0, 0.0, 0.0, 0.0, 1.6057141715325751E9, 2020-11-18 09:42:51.532
203.0, 2011238.4375, 1778290.3125, -782941.171875, -759042.703125, -34685.7919921875, -752980.359375, -498496.078125, -692628.515625, -0.020000001415610313, 0.8260000348091125, 0.47600001096725464, 192.0, 255.0, 96.0, 25.0, 208.0, 14.0, 224.0, 0.0, 0.0, 0.0, 1.6057141715325782E9, 2020-11-18 09:42:51.532
204.0, 2009477.4375, 1780199.4375, -764563.21875, -719629.21875, -172375.93359375, -745724.4375, -485957.859375, -698786.296875, -0.020000001415610313, 0.8260000348091125, 0.47600001096725464, 192.0, 0.0, 0.0, 0.0, 0.0, 0.0, 0.0, 0.0, 0.0, 0.0, 1.6057141715325809E9, 2020-11-18 09:42:51.532
205.0, 1993701.1875, 1858911.0, -752610.1875, -682968.234375, -23237.05224609375, -762448.546875, -478616.109375, -627859.03125, -0.020000001415610313, 0.8260000348091125, 0.47600001096725464, 192.0, 0.0, 0.0, 0.0, 0.0, 0.0, 0.0, 0.0, 0.0, 0.0, 1.6057141715325832E9, 2020-11-18 09:42:51.532
206.0, 1993460.25, 1871516.8125, -772836.234375, -718959.234375, 159931.01953125, -773094.234375, -491650.03125, -608478.46875, -0.020000001415610313, 0.8260000348091125, 0.47600001096725464, 192.0, 0.0, 0.0, 0.0, 0.0, 0.0, 0.0, 0.0, 0.0, 0.0, 1.6057141715325859E9, 2020-11-18 09:42:51.532
207.0, 2009238.1875, 1790360.8125, -784856.8125, -759972.890625, 10553.420654296875, -756853.453125, -499713.796875, -680473.265625, -0.020000001415610313, 0.8260000348091125, 0.47600001096725464, 192.0, 0.0, 0.0, 0.0, 0.0, 0.0, 0.0, 0.0, 0.0, 0.0, 1.6057141715325909E9, 2020-11-18 09:42:51.532
208.0, 2010239.625, 1771476.9375, -767952.46875, -729446.671875, -163498.88671875, -745979.25, -488527.921875, -705146.90625, -0.020000001415610313, 0.8260000348091125, 0.47600001096725464, 192.0, 0.0, 0.0, 0.0, 0.0, 0.0, 0.0, 0.0, 0.0, 0.0, 1.605714171532595E9, 2020-11-18 09:42:51.532
209.0, 1996532.4375, 1843836.0, -753050.625, -686748.046875, -70651.001953125, -758328.140625, -479050.59375, -642397.6875, -0.020000001415610313, 0.8260000348091125, 0.47600001096725464, 192.0, 0.0, 0.0, 0.0, 0.0, 0.0, 0.0, 0.0, 0.0, 0.0, 1.6057141715325973E9, 2020-11-18 09:42:51.532
210.0, 1990894.5, 1878382.6875, -769125.09375, -710073.609375, 154134.76171875, -774491.671875, -489370.125, -603100.640625, -0.020000001415610313, 0.8260000348091125, 0.47600001096725464, 192.0, 0.0, 0.0, 0.0, 0.0, 0.0, 0.0, 0.0, 0.0, 0.0, 1.6057141715326724E9, 2020-11-18 09:42:51.532
211.0, 2006206.6875, 1804989.0, -785659.875, -757556.203125, 57153.052734375, -761121.9375, -500503.453125, -666371.296875, -0.020000001415610313, 0.8260000348091125, 0.47600001096725464, 192.0, 0.0, 0.0, 0.0, 0.0, 0.0, 0.0, 0.0, 0.0, 0.0, 1.6057141715326967E9, 2020-11-18 09:42:51.532
212.0, 2011311.375, 1765750.875, -771360.984375, -738290.4375, -147400.27734375, -746243.203125, -491195.671875, -709177.21875, -0.02200000174343586, 0.8240000605583191, 0.47600001096725464, 192.0, 255.0, 80.0, 25.0, 192.0, 14.0, 224.0, 0.0, 0.0, 0.0, 1.605714171532705E9, 2020-11-18 09:42:51.532
213.0, 1999610.0625, 1827704.625, -754603.078125, -691242.328125, -112131.36328125, -754254.421875, -480005.484375, -657429.890625, -0.02200000174343586, 0.8240000605583191, 0.47600001096725464, 192.0, 0.0, 0.0, 0.0, 0.0, 0.0, 0.0, 0.0, 0.0, 0.0, 1.6057141715327148E9, 2020-11-18 09:42:51.532
214.0, 1989884.8125, 1882068.1875, -764252.0625, -700793.671875, 134940.33984375, -773969.15625, -486374.109375, -601512.234375, -0.02200000174343586, 0.8240000605583191, 0.47600001096725464, 192.0, 0.0, 0.0, 0.0, 0.0, 0.0, 0.0, 0.0, 0.0, 0.0, 1.6057141715327244E9, 2020-11-18 09:42:51.532
215.0, 2003393.0625, 1821562.3125, -784232.90625, -751719.703125, 97961.255859375, -764931.75, -499722.9375, -651343.40625, -0.02200000174343586, 0.8240000605583191, 0.47600001096725464, 192.0, 0.0, 0.0, 0.0, 0.0, 0.0, 0.0, 0.0, 0.0, 0.0, 1.6057141715327344E9, 2020-11-18 09:42:51.532
216.0, 2011944.375, 1763706.0, -774975.5625, -746651.390625, -123285.59765625, -747578.390625, -493822.078125, -709337.578125, -0.02200000174343586, 0.8240000605583191, 0.47600001096725464, 192.0, 0.0, 0.0, 0.0, 0.0, 0.0, 0.0, 0.0, 0.0, 0.0, 1.6057141715327377E9, 2020-11-18 09:42:51.532
217.0, 2002833.0, 1812028.6875, -757279.40625, -698561.015625, -142647.3984375, -751007.34375, -481714.59375, -671465.34375, -0.02200000174343586, 0.8240000605583191, 0.47600001096725464, 192.0, 0.0, 0.0, 0.0, 0.0, 0.0, 0.0, 0.0, 0.0, 0.0, 1.6057141715327444E9, 2020-11-18 09:42:51.532
218.0, 1989393.5625, 1881344.4375, -759921.375, -692822.15625, 104741.8828125, -772518.65625, -483655.453125, -603730.96875, -0.02200000174343586, 0.8240000605583191, 0.47600001096725464, 192.0, 0.0, 0.0, 0.0, 0.0, 0.0, 0.0, 0.0, 0.0, 0.0, 1.6057141715327487E9, 2020-11-18 09:42:51.532
219.0, 2000354.625, 1837296.1875, -782127.375, -744303.421875, 129799.6171875, -768193.828125, -498321.75, -637512.84375, -0.02200000174343586, 0.8240000605583191, 0.47600001096725464, 192.0, 0.0, 0.0, 0.0, 0.0, 0.0, 0.0, 0.0, 0.0, 0.0, 1.6057141715327537E9, 2020-11-18 09:42:51.532
220.0, 2012233.6875, 1765563.75, -778302.5625, -753707.25, -92970.19921875, -749225.25, -495851.4375, -706199.953125, -0.02200000174343586, 0.8240000605583191, 0.47600001096725464, 192.0, 0.0, 0.0, 0.0, 0.0, 0.0, 0.0, 0.0, 0.0, 0.0, 1.6057141715327585E9, 2020-11-18 09:42:51.532
221.0, 2005618.125, 1798182.0, -760196.015625, -706921.453125, -160406.8359375, -748812.1875, -483271.875, -683350.21875, -0.02200000174343586, 0.8240000605583191, 0.47600001096725464, 192.0, 0.0, 0.0, 0.0, 0.0, 0.0, 0.0, 0.0, 0.0, 0.0, 1.6057141715327625E9, 2020-11-18 09:42:51.532
222.0, 1989874.6875, 1876362.5625, -756144.28125, -687018.375, 65615.419921875, -770015.625, -481261.828125, -609461.765625, -0.02800000086426735, 0.8220000267028809, 0.47200003266334534, 192.0, 255.0, 32.0, 25.0, 176.0, 14.0, 192.0, 0.0, 0.0, 0.0, 1.6057141715327673E9, 2020-11-18 09:42:51.532
223.0, 1997012.625, 1852200.1875, -779512.78125, -735717.65625, 155528.4375, -771540.703125, -496572.9375, -624096.46875, -0.02800000086426735, 0.8220000267028809, 0.47200003266334534, 192.0, 0.0, 0.0, 0.0, 0.0, 0.0, 0.0, 0.0, 0.0, 0.0, 1.605714171532772E9, 2020-11-18 09:42:51.532
224.0, 2011619.4375, 1771652.8125, -782117.203125, -759414.984375, -52209.73828125, -752215.921875, -498510.5625, -699176.859375, -0.02800000086426735, 0.8220000267028809, 0.47200003266334534, 192.0, 0.0, 0.0, 0.0, 0.0, 0.0, 0.0, 0.0, 0.0, 0.0, 1.6057141715327744E9, 2020-11-18 09:42:51.532
225.0, 2008200.5625, 1785934.5, -763033.265625, -715363.453125, -167558.68359375, -746940.0, -485309.296875, -694197.046875, -0.02800000086426735, 0.8220000267028809, 0.47200003266334534, 192.0, 0.0, 0.0, 0.0, 0.0, 0.0, 0.0, 0.0, 0.0, 0.0, 1.605714171532787E9, 2020-11-18 09:42:51.532
226.0, 1992047.8125, 1866787.5, -753410.578125, -683610.375, 16706.9443359375, -765783.609375, -479601.5625, -620148.75, -0.02800000086426735, 0.8220000267028809, 0.47200003266334534, 192.0, 0.0, 0.0, 0.0, 0.0, 0.0, 0.0, 0.0, 0.0, 0.0, 1.6057141715327923E9, 2020-11-18 09:42:51.532
227.0, 1995172.125, 1864247.625, -775609.640625, -725958.1875, 164052.50390625, -772804.546875, -493910.578125, -614654.53125, -0.02800000086426735, 0.8220000267028809, 0.47200003266334534, 192.0, 0.0, 0.0, 0.0, 0.0, 0.0, 0.0, 0.0, 0.0, 0.0, 1.6057141715328019E9, 2020-11-18 09:42:51.532
228.0, 2010994.5, 1781258.4375, -783808.078125, -760877.296875, -15356.72021484375, -754649.203125, -499482.09375, -689790.1875, -0.02800000086426735, 0.8220000267028809, 0.47200003266334534, 192.0, 0.0, 0.0, 0.0, 0.0, 0.0, 0.0, 0.0, 0.0, 0.0, 1.6057141715328116E9, 2020-11-18 09:42:51.532
229.0, 2009731.6875, 1776860.0625, -765842.0625, -723494.296875, -165352.30078125, -746412.703125, -487376.203125, -701539.875, -0.02800000086426735, 0.8220000267028809, 0.47200003266334534, 192.0, 0.0, 0.0, 0.0, 0.0, 0.0, 0.0, 0.0, 0.0, 0.0, 1.6057141715328228E9, 2020-11-18 09:42:51.532
230.0, 1994562.75, 1854143.625, -752888.625, -684104.953125, -33053.9384765625, -761891.71875, -479487.28125, -632809.3125, -0.02800000086426735, 0.8220000267028809, 0.47200003266334534, 192.0, 0.0, 0.0, 0.0, 0.0, 0.0, 0.0, 0.0, 0.0, 0.0, 1.6057141715328343E9, 2020-11-18 09:42:51.532
231.0, 1993124.4375, 1873689.9375, -771888.84375, -716545.78125, 163556.296875, -774042.140625, -491725.125, -607324.078125, -0.02800000086426735, 0.8220000267028809, 0.47200003266334534, 192.0, 0.0, 0.0, 0.0, 0.0, 0.0, 0.0, 0.0, 0.0, 0.0, 1.6057141715328472E9, 2020-11-18 09:42:51.532
232.0, 2009249.4375, 1794536.4375, -784874.484375, -759863.953125, 27678.2548828125, -758361.9375, -500510.4375, -677200.453125, -0.030000001192092896, 0.8300000429153442, 0.46800002455711365, 192.0, 255.0, 16.0, 25.0, 240.0, 14.0, 160.0, 0.0, 0.0, 0.0, 1.605714171532859E9, 2020-11-18 09:42:51.532
233.0, 2011594.125, 1769841.375, -768458.859375, -732084.328125, -155759.6484375, -746351.015625, -489670.03125, -707206.828125, -0.030000001192092896, 0.8300000429153442, 0.46800002455711365, 192.0, 0.0, 0.0, 0.0, 0.0, 0.0, 0.0, 0.0, 0.0, 0.0, 1.605714171532903E9, 2020-11-18 09:42:51.532
234.0, 1998440.625, 1839401.625, -753089.25, -687269.4375, -80128.857421875, -757441.921875, -479645.015625, -647372.671875, -0.030000001192092896, 0.8300000429153442, 0.46800002455711365, 192.0, 0.0, 0.0, 0.0, 0.0, 0.0, 0.0, 0.0, 0.0, 0.0, 1.6057141715329099E9, 2020-11-18 09:42:51.532
235.0, 1991911.125, 1880286.5625, -767218.59375, -706985.296875, 152111.30859375, -774458.953125, -488577.28125, -603073.828125, -0.030000001192092896, 0.8300000429153442, 0.46800002455711365, 192.0, 0.0, 0.0, 0.0, 0.0, 0.0, 0.0, 0.0, 0.0, 0.0, 1.605714171532913E9, 2020-11-18 09:42:51.532
236.0, 2006420.8125, 1809952.6875, -784987.171875, -756242.4375, 70613.44921875, -762578.90625, -500352.1875, -662692.921875, -0.030000001192092896, 0.8300000429153442, 0.46800002455711365, 192.0, 0.0, 0.0, 0.0, 0.0, 0.0, 0.0, 0.0, 0.0, 0.0, 1.6057141715329163E9, 2020-11-18 09:42:51.532
237.0, 2012435.25, 1765083.5625, -771984.890625, -740894.859375, -138928.78125, -746907.28125, -491875.3125, -709962.5625, -0.030000001192092896, 0.8300000429153442, 0.46800002455711365, 192.0, 0.0, 0.0, 0.0, 0.0, 0.0, 0.0, 0.0, 0.0, 0.0, 1.6057141715329227E9, 2020-11-18 09:42:51.532
238.0, 2001249.375, 1823157.1875, -755291.34375, -693485.71875, -119085.2578125, -753773.765625, -480537.09375, -661900.03125, -0.030000001192092896, 0.8300000429153442, 0.46800002455711365, 192.0, 0.0, 0.0, 0.0, 0.0, 0.0, 0.0, 0.0, 0.0, 0.0, 1.6057141715329287E9, 2020-11-18 09:42:51.532
239.0, 1990661.0625, 1882085.25, -763012.875, -698907.0, 128251.44140625, -773758.875, -485635.96875, -602523.421875, -0.030000001192092896, 0.8300000429153442, 0.46800002455711365, 192.0, 0.0, 0.0, 0.0, 0.0, 0.0, 0.0, 0.0, 0.0, 0.0, 1.6057141715329359E9, 2020-11-18 09:42:51.532
240.0, 2003552.4375, 1825700.4375, -783484.59375, -750241.828125, 105836.75390625, -765749.8125, -499124.8125, -648469.6875, -0.030000001192092896, 0.8300000429153442, 0.46800002455711365, 192.0, 0.0, 0.0, 0.0, 0.0, 0.0, 0.0, 0.0, 0.0, 0.0, 1.60571417153294E9, 2020-11-18 09:42:51.532
241.0, 2012778.0, 1763834.25, -775326.890625, -748378.734375, -115600.53515625, -748094.4375, -494000.71875, -709307.015625, -0.030000001192092896, 0.8300000429153442, 0.46800002455711365, 192.0, 0.0, 0.0, 0.0, 0.0, 0.0, 0.0, 0.0, 0.0, 0.0, 1.6057141720105755E9, 2020-11-18 09:42:52.010
242.0, 2004321.0, 1807844.4375, -757885.59375, -700950.328125, -147727.5, -750648.421875, -481924.875, -675477.375, -0.02800000086426735, 0.8300000429153442, 0.47200003266334534, 192.0, 255.0, 32.0, 25.0, 240.0, 14.0, 192.0, 0.0, 0.0, 0.0, 1.6057141720107403E9, 2020-11-18 09:42:52.010
243.0, 1990177.875, 1880369.8125, -758474.578125, -690681.234375, 94296.8203125, -771917.8125, -482588.4375, -605701.875, -0.02800000086426735, 0.8300000429153442, 0.47200003266334534, 192.0, 0.0, 0.0, 0.0, 0.0, 0.0, 0.0, 0.0, 0.0, 0.0, 1.6057141720107436E9, 2020-11-18 09:42:52.010
244.0, 1999842.375, 1841499.1875, -781493.296875, -742120.078125, 136804.4765625, -769255.453125, -497753.671875, -634206.75, -0.02800000086426735, 0.8300000429153442, 0.47200003266334534, 192.0, 0.0, 0.0, 0.0, 0.0, 0.0, 0.0, 0.0, 0.0, 0.0, 1.605714172010746E9, 2020-11-18 09:42:52.010
245.0, 2012785.125, 1766668.3125, -779200.546875, -755636.296875, -83902.72265625, -749734.359375, -496457.625, -705331.453125, -0.02800000086426735, 0.8300000429153442, 0.47200003266334534, 192.0, 0.0, 0.0, 0.0, 0.0, 0.0, 0.0, 0.0, 0.0, 0.0, 1.6057141720107486E9, 2020-11-18 09:42:52.010
246.0, 2006780.0625, 1794490.875, -761047.921875, -709367.625, -162998.390625, -748237.6875, -483699.9375, -686848.875, -0.02800000086426735, 0.8300000429153442, 0.47200003266334534, 192.0, 0.0, 0.0, 0.0, 0.0, 0.0, 0.0, 0.0, 0.0, 0.0, 1.6057141720107512E9, 2020-11-18 09:42:52.010
247.0, 1991202.9375, 1874023.125, -755186.203125, -685543.734375, 50985.041015625, -768481.921875, -480537.09375, -612728.15625, -0.02800000086426735, 0.8300000429153442, 0.47200003266334534, 192.0, 0.0, 0.0, 0.0, 0.0, 0.0, 0.0, 0.0, 0.0, 0.0, 1.6057141720107536E9, 2020-11-18 09:42:52.010
248.0, 1997364.5625, 1855552.875, -778350.84375, -732918.515625, 155868.5390625, -771336.84375, -495604.125, -621841.265625, -0.02800000086426735, 0.8300000429153442, 0.47200003266334534, 192.0, 0.0, 0.0, 0.0, 0.0, 0.0, 0.0, 0.0, 0.0, 0.0, 1.605714172010756E9, 2020-11-18 09:42:52.010
249.0, 2012411.625, 1773535.3125, -782281.875, -759944.4375, -47025.5654296875, -752373.65625, -498532.59375, -697474.171875, -0.02800000086426735, 0.8300000429153442, 0.47200003266334534, 192.0, 0.0, 0.0, 0.0, 0.0, 0.0, 0.0, 0.0, 0.0, 0.0, 1.6057141720107586E9, 2020-11-18 09:42:52.010
250.0, 2009184.375, 1783275.375, -763567.03125, -717740.4375, -168760.3125, -746739.9375, -485691.234375, -696491.953125, -0.02800000086426735, 0.8300000429153442, 0.47200003266334534, 192.0, 0.0, 0.0, 0.0, 0.0, 0.0, 0.0, 0.0, 0.0, 0.0, 1.605714172010761E9, 2020-11-18 09:42:52.010
251.0, 1993249.5, 1863188.0625, -752891.859375, -683608.21875, 202.7750244140625, -764507.4375, -479286.09375, -623833.03125, -0.02800000086426735, 0.8340000510215759, 0.4700000286102295, 192.0, 255.0, 32.0, 26.0, 16.0, 14.0, 176.0, 0.0, 0.0, 0.0, 1.6057141720107636E9, 2020-11-18 09:42:52.010
252.0, 1994891.0625, 1867117.5, -774548.015625, -723527.015625, 163253.203125, -773282.53125, -493325.859375, -612204.046875, -0.02800000086426735, 0.8340000510215759, 0.4700000286102295, 192.0, 0.0, 0.0, 0.0, 0.0, 0.0, 0.0, 0.0, 0.0, 0.0, 1.605714172010766E9, 2020-11-18 09:42:52.010
253.0, 2010722.4375, 1784591.25, -784432.5, -761571.46875, -4243.79150390625, -756052.546875, -500156.390625, -686420.25, -0.02800000086426735, 0.8340000510215759, 0.4700000286102295, 192.0, 0.0, 0.0, 0.0, 0.0, 0.0, 0.0, 0.0, 0.0, 0.0, 1.6057141720107687E9, 2020-11-18 09:42:52.010
254.0, 2010522.9375, 1773729.375, -766559.859375, -726917.859375, -166123.69921875, -746410.546875, -488184.609375, -704131.96875, -0.02800000086426735, 0.8340000510215759, 0.4700000286102295, 192.0, 0.0, 0.0, 0.0, 0.0, 0.0, 0.0, 0.0, 0.0, 0.0, 1.6057141720107713E9, 2020-11-18 09:42:52.010
255.0, 1995790.5, 1848900.5625, -752603.25, -685318.40625, -51986.578125, -760474.453125, -479400.375, -637780.546875, -0.02800000086426735, 0.8340000510215759, 0.4700000286102295, 192.0, 0.0, 0.0, 0.0, 0.0, 0.0, 0.0, 0.0, 0.0, 0.0, 1.605714172010774E9, 2020-11-18 09:42:52.010
0.0, 1992636.375, 1875524.625, -770397.0, -713971.359375, 158330.2734375, -774490.078125, -490677.984375, -605927.15625, -0.02800000086426735, 0.8340000510215759, 0.4700000286102295, 192.0, 0.0, 0.0, 0.0, 0.0, 0.0, 0.0, 0.0, 0.0, 0.0, 1.605714172010784E9, 2020-11-18 09:42:52.010
1.0, 2008563.75, 1798554.375, -785049.375, -759398.859375, 37936.095703125, -759492.75, -500439.609375, -673330.546875, -0.02800000086426735, 0.8340000510215759, 0.4700000286102295, 192.0, 0.0, 0.0, 0.0, 0.0, 0.0, 0.0, 0.0, 0.0, 0.0, 1.6057141720107863E9, 2020-11-18 09:42:52.010
2.0, 2011709.4375, 1767548.0625, -769574.625, -735109.875, -154957.6640625, -746367.09375, -490071.28125, -708596.25, -0.02800000086426735, 0.8340000510215759, 0.4700000286102295, 192.0, 0.0, 0.0, 0.0, 0.0, 0.0, 0.0, 0.0, 0.0, 0.0, 1.6057141720107892E9, 2020-11-18 09:42:52.010
3.0, 1998660.5625, 1833406.5, -754227.046875, -689815.40625, -96950.6015625, -756488.671875, -479891.765625, -651952.265625, -0.02800000086426735, 0.8340000510215759, 0.4700000286102295, 192.0, 0.0, 0.0, 0.0, 0.0, 0.0, 0.0, 0.0, 0.0, 0.0, 1.6057141720107915E9, 2020-11-18 09:42:52.010
4.0, 1991178.1875, 1880381.0625, -766236.890625, -705381.890625, 141462.9375, -774211.640625, -487771.03125, -602749.265625, -0.02800000086426735, 0.8340000510215759, 0.4700000286102295, 192.0, 0.0, 0.0, 0.0, 0.0, 0.0, 0.0, 0.0, 0.0, 0.0, 1.605714172010794E9, 2020-11-18 09:42:52.010
5.0, 2005514.625, 1814348.8125, -784740.375, -755127.1875, 77997.03515625, -763264.5, -500103.28125, -658441.078125, -0.036000002175569534, 0.8340000510215759, 0.47600001096725464, 192.0, 254.0, 224.0, 26.0, 16.0, 14.0, 224.0, 0.0, 0.0, 0.0, 1.6057141720107963E9, 2020-11-18 09:42:52.010
6.0, 2012294.8125, 1763760.75, -773214.9375, -743659.125, -136769.6015625, -747179.8125, -492652.640625, -710230.21875, -0.036000002175569534, 0.8340000510215759, 0.47600001096725464, 192.0, 0.0, 0.0, 0.0, 0.0, 0.0, 0.0, 0.0, 0.0, 0.0, 1.605714172010799E9, 2020-11-18 09:42:52.010
7.0, 2002059.375, 1817595.375, -756435.5625, -696434.015625, -133630.88671875, -752839.828125, -481239.84375, -666476.4375, -0.036000002175569534, 0.8340000510215759, 0.47600001096725464, 192.0, 0.0, 0.0, 0.0, 0.0, 0.0, 0.0, 0.0, 0.0, 0.0, 1.6057141720108016E9, 2020-11-18 09:42:52.010
8.0, 1990221.1875, 1881483.375, -761688.9375, -696358.359375, 114637.08984375, -773407.546875, -484932.1875, -603212.765625, -0.036000002175569534, 0.8340000510215759, 0.47600001096725464, 192.0, 0.0, 0.0, 0.0, 0.0, 0.0, 0.0, 0.0, 0.0, 0.0, 1.605714172010804E9, 2020-11-18 09:42:52.010
9.0, 2002381.875, 1831001.0625, -783033.421875, -747843.9375, 114669.26953125, -767006.71875, -498975.140625, -643498.453125, -0.036000002175569534, 0.8340000510215759, 0.47600001096725464, 192.0, 0.0, 0.0, 0.0, 0.0, 0.0, 0.0, 0.0, 0.0, 0.0, 1.6057141720108063E9, 2020-11-18 09:42:52.010
10.0, 2012980.875, 1764127.125, -776967.375, -751744.921875, -109837.0078125, -748407.1875, -495089.671875, -708698.671875, -0.036000002175569534, 0.8340000510215759, 0.47600001096725464, 192.0, 0.0, 0.0, 0.0, 0.0, 0.0, 0.0, 0.0, 0.0, 0.0, 1.605714172010809E9, 2020-11-18 09:42:52.010
11.0, 2005190.625, 1803063.1875, -759109.734375, -703991.953125, -158456.34375, -749611.5, -482704.875, -679662.1875, -0.036000002175569534, 0.8340000510215759, 0.47600001096725464, 192.0, 0.0, 0.0, 0.0, 0.0, 0.0, 0.0, 0.0, 0.0, 0.0, 1.6057141720108116E9, 2020-11-18 09:42:52.010
12.0, 1990881.0, 1878421.3125, -757108.265625, -688871.25, 76325.484375, -770441.53125, -481895.390625, -607947.9375, -0.036000002175569534, 0.8340000510215759, 0.47600001096725464, 192.0, 0.0, 0.0, 0.0, 0.0, 0.0, 0.0, 0.0, 0.0, 0.0, 1.605714172010814E9, 2020-11-18 09:42:52.010
13.0, 1999398.1875, 1845991.3125, -780256.828125, -739131.046875, 139157.30859375, -769661.015625, -496929.703125, -630234.421875, -0.036000002175569534, 0.8340000510215759, 0.47600001096725464, 192.0, 0.0, 0.0, 0.0, 0.0, 0.0, 0.0, 0.0, 0.0, 0.0, 1.6057141720108163E9, 2020-11-18 09:42:52.010
14.0, 2012565.75, 1768123.6875, -780479.953125, -757527.234375, -76997.642578125, -750654.328125, -497248.3125, -703110.5625, -0.036000002175569534, 0.8340000510215759, 0.47600001096725464, 192.0, 0.0, 0.0, 0.0, 0.0, 0.0, 0.0, 0.0, 0.0, 0.0, 1.6057141720108187E9, 2020-11-18 09:42:52.010
15.0, 2007529.5, 1790072.0625, -762226.453125, -712474.171875, -171528.890625, -747732.328125, -484668.234375, -690518.671875, -0.04200000315904617, 0.8280000686645508, 0.4780000150203705, 192.0, 254.0, 176.0, 25.0, 224.0, 14.0, 240.0, 0.0, 0.0, 0.0, 1.6057141720108213E9, 2020-11-18 09:42:52.010
16.0, 1991636.4375, 1870609.125, -754468.96875, -684897.28125, 30408.205078125, -767558.15625, -480305.34375, -616081.453125, -0.04200000315904617, 0.8280000686645508, 0.4780000150203705, 192.0, 0.0, 0.0, 0.0, 0.0, 0.0, 0.0, 0.0, 0.0, 0.0, 1.605714172010824E9, 2020-11-18 09:42:52.010
17.0, 1996113.0, 1859706.0, -777429.75, -730260.421875, 157350.7265625, -772588.359375, -495205.546875, -618164.484375, -0.04200000315904617, 0.8280000686645508, 0.4780000150203705, 192.0, 0.0, 0.0, 0.0, 0.0, 0.0, 0.0, 0.0, 0.0, 0.0, 1.6057141720108266E9, 2020-11-18 09:42:52.010
18.0, 2012080.6875, 1777200.75, -783280.734375, -761156.25, -34592.98828125, -753434.71875, -499190.8125, -694109.0625, -0.04200000315904617, 0.8280000686645508, 0.4780000150203705, 192.0, 0.0, 0.0, 0.0, 0.0, 0.0, 0.0, 0.0, 0.0, 0.0, 1.6057141720108292E9, 2020-11-18 09:42:52.010
19.0, 2010415.6875, 1779664.6875, -764418.890625, -720627.5625, -174885.9375, -745791.515625, -486238.40625, -700243.828125, -0.04200000315904617, 0.8280000686645508, 0.4780000150203705, 192.0, 0.0, 0.0, 0.0, 0.0, 0.0, 0.0, 0.0, 0.0, 0.0, 1.6057141720108316E9, 2020-11-18 09:42:52.010
20.0, 1994318.625, 1858724.25, -752515.78125, -683474.109375, -22596.0029296875, -762945.84375, -478904.71875, -628613.8125, -0.04200000315904617, 0.8280000686645508, 0.4780000150203705, 192.0, 0.0, 0.0, 0.0, 0.0, 0.0, 0.0, 0.0, 0.0, 0.0, 1.605714172010834E9, 2020-11-18 09:42:52.010
21.0, 1993922.625, 1869851.8125, -773473.5, -720445.6875, 157938.66796875, -773997.609375, -492516.375, -609993.9375, -0.04200000315904617, 0.8280000686645508, 0.4780000150203705, 192.0, 0.0, 0.0, 0.0, 0.0, 0.0, 0.0, 0.0, 0.0, 0.0, 1.6057141720108373E9, 2020-11-18 09:42:52.010
22.0, 2009918.25, 1788865.125, -784930.3125, -761202.421875, 5648.1961669921875, -757283.671875, -500314.640625, -682278.9375, -0.04200000315904617, 0.8280000686645508, 0.4780000150203705, 192.0, 0.0, 0.0, 0.0, 0.0, 0.0, 0.0, 0.0, 0.0, 0.0, 1.60571417201084E9, 2020-11-18 09:42:52.010
23.0, 2011116.75, 1771550.4375, -767497.546875, -729532.5, -167059.25390625, -746200.78125, -488760.75, -705875.390625, -0.04200000315904617, 0.8280000686645508, 0.4780000150203705, 192.0, 0.0, 0.0, 0.0, 0.0, 0.0, 0.0, 0.0, 0.0, 0.0, 1.6057141720108447E9, 2020-11-18 09:42:52.010
24.0, 1997253.0, 1844447.4375, -752387.578125, -685923.0, -70618.81640625, -758628.5625, -479068.3125, -642292.03125, -0.04200000315904617, 0.8280000686645508, 0.4780000150203705, 192.0, 0.0, 0.0, 0.0, 0.0, 0.0, 0.0, 0.0, 0.0, 0.0, 1.605714172010847E9, 2020-11-18 09:42:52.010
25.0, 1992279.5625, 1877667.75, -768579.5625, -710550.46875, 151177.8984375, -774269.578125, -489380.34375, -604307.625, -0.04000000283122063, 0.8220000267028809, 0.47600001096725464, 192.0, 254.0, 192.0, 25.0, 176.0, 14.0, 224.0, 0.0, 0.0, 0.0, 1.6057141720108497E9, 2020-11-18 09:42:52.010
26.0, 2007394.3125, 1803617.25, -784908.84375, -758290.59375, 49201.37109375, -760751.765625, -500248.125, -668142.09375, -0.04000000283122063, 0.8220000267028809, 0.47600001096725464, 192.0, 0.0, 0.0, 0.0, 0.0, 0.0, 0.0, 0.0, 0.0, 0.0, 1.6057141720108533E9, 2020-11-18 09:42:52.010
27.0, 2011713.75, 1765898.4375, -770729.625, -738758.203125, -152428.875, -746493.140625, -490775.625, -709147.6875, -0.04000000283122063, 0.8220000267028809, 0.47600001096725464, 192.0, 0.0, 0.0, 0.0, 0.0, 0.0, 0.0, 0.0, 0.0, 0.0, 1.6057141720108557E9, 2020-11-18 09:42:52.010
28.0, 1999736.0625, 1828331.625, -754465.21875, -691358.203125, -112468.79296875, -754897.078125, -479969.015625, -656367.703125, -0.04000000283122063, 0.8220000267028809, 0.47600001096725464, 192.0, 0.0, 0.0, 0.0, 0.0, 0.0, 0.0, 0.0, 0.0, 0.0, 1.605714172010858E9, 2020-11-18 09:42:52.010
29.0, 1990377.375, 1881053.8125, -764512.78125, -701599.96875, 132652.41796875, -774059.859375, -486475.5, -601786.921875, -0.04000000283122063, 0.8220000267028809, 0.47600001096725464, 192.0, 0.0, 0.0, 0.0, 0.0, 0.0, 0.0, 0.0, 0.0, 0.0, 1.6057141720108607E9, 2020-11-18 09:42:52.010
30.0, 2004082.3125, 1819503.0, -784343.953125, -753031.3125, 89656.060546875, -764565.890625, -499636.03125, -652962.9375, -0.04000000283122063, 0.8220000267028809, 0.47600001096725464, 192.0, 0.0, 0.0, 0.0, 0.0, 0.0, 0.0, 0.0, 0.0, 0.0, 1.6057141720108633E9, 2020-11-18 09:42:52.010
31.0, 2012404.6875, 1763145.375, -774496.5, -746881.03125, -130783.453125, -747347.71875, -493367.15625, -709777.453125, -0.04000000283122063, 0.8220000267028809, 0.47600001096725464, 192.0, 0.0, 0.0, 0.0, 0.0, 0.0, 0.0, 0.0, 0.0, 0.0, 1.6057141720108657E9, 2020-11-18 09:42:52.010
32.0, 2003086.125, 1812400.5, -757010.109375, -698598.046875, -145733.015625, -751293.234375, -481397.015625, -670703.578125, -0.04000000283122063, 0.8220000267028809, 0.47600001096725464, 192.0, 0.0, 0.0, 0.0, 0.0, 0.0, 0.0, 0.0, 0.0, 0.0, 1.6057141720108683E9, 2020-11-18 09:42:52.010
33.0, 1990021.6875, 1880642.25, -760142.90625, -693662.765625, 101343.515625, -772482.140625, -483495.5625, -603763.6875, -0.04000000283122063, 0.8220000267028809, 0.47600001096725464, 192.0, 0.0, 0.0, 0.0, 0.0, 0.0, 0.0, 0.0, 0.0, 0.0, 1.605714172010871E9, 2020-11-18 09:42:52.010
34.0, 2000854.6875, 1835319.375, -782455.6875, -745448.15625, 121365.140625, -767945.484375, -498114.140625, -638647.96875, -0.030000001192092896, 0.8220000267028809, 0.47200003266334534, 192.0, 255.0, 16.0, 25.0, 176.0, 14.0, 192.0, 0.0, 0.0, 0.0, 1.6057141720108736E9, 2020-11-18 09:42:52.010
35.0, 2012416.5, 1764545.0625, -778324.03125, -754073.625, -101478.1640625, -749072.390625, -495705.515625, -706823.296875, -0.030000001192092896, 0.8220000267028809, 0.47200003266334534, 192.0, 0.0, 0.0, 0.0, 0.0, 0.0, 0.0, 0.0, 0.0, 0.0, 1.605714172010876E9, 2020-11-18 09:42:52.010
36.0, 2005669.125, 1798185.75, -760125.75, -706725.65625, -165601.20703125, -748783.21875, -483128.625, -683002.03125, -0.030000001192092896, 0.8220000267028809, 0.47200003266334534, 192.0, 0.0, 0.0, 0.0, 0.0, 0.0, 0.0, 0.0, 0.0, 0.0, 1.6057141720108786E9, 2020-11-18 09:42:52.010
37.0, 1990191.75, 1875540.75, -756484.40625, -687482.953125, 60968.759765625, -769917.984375, -481248.421875, -609415.125, -0.030000001192092896, 0.8220000267028809, 0.47200003266334534, 192.0, 0.0, 0.0, 0.0, 0.0, 0.0, 0.0, 0.0, 0.0, 0.0, 1.6057141720108812E9, 2020-11-18 09:42:52.010
38.0, 1998111.1875, 1849814.625, -779654.90625, -736586.15625, 143717.0625, -770599.265625, -496361.0625, -625859.203125, -0.030000001192092896, 0.8220000267028809, 0.47200003266334534, 192.0, 0.0, 0.0, 0.0, 0.0, 0.0, 0.0, 0.0, 0.0, 0.0, 1.6057141720108836E9, 2020-11-18 09:42:52.010
39.0, 2012272.3125, 1770014.0625, -781375.3125, -758938.078125, -66414.181640625, -751411.265625, -497818.59375, -700336.078125, -0.030000001192092896, 0.8220000267028809, 0.47200003266334534, 192.0, 0.0, 0.0, 0.0, 0.0, 0.0, 0.0, 0.0, 0.0, 0.0, 1.6057141720108864E9, 2020-11-18 09:42:52.010
40.0, 2007868.125, 1786268.25, -762938.859375, -715058.765625, -173586.6796875, -747352.546875, -485042.15625, -692970.234375, -0.030000001192092896, 0.8220000267028809, 0.47200003266334534, 192.0, 0.0, 0.0, 0.0, 0.0, 0.0, 0.0, 0.0, 0.0, 0.0, 1.6057141720108888E9, 2020-11-18 09:42:52.010
41.0, 1991648.8125, 1866683.0625, -754047.328125, -684379.640625, 14377.7138671875, -766450.96875, -479865.46875, -618879.0, -0.030000001192092896, 0.8220000267028809, 0.47200003266334534, 192.0, 0.0, 0.0, 0.0, 0.0, 0.0, 0.0, 0.0, 0.0, 0.0, 1.6057141720108912E9, 2020-11-18 09:42:52.010
42.0, 1994840.0625, 1862667.75, -776415.375, -727147.453125, 159367.7578125, -773011.640625, -494299.5, -614598.75, -0.030000001192092896, 0.8220000267028809, 0.47200003266334534, 192.0, 0.0, 0.0, 0.0, 0.0, 0.0, 0.0, 0.0, 0.0, 0.0, 1.6057141720108938E9, 2020-11-18 09:42:52.010
43.0, 2010397.875, 1780170.0, -784479.703125, -761672.34375, -18759.3720703125, -754993.078125, -499715.4375, -689530.03125, -0.030000001192092896, 0.8220000267028809, 0.47200003266334534, 192.0, 0.0, 0.0, 0.0, 0.0, 0.0, 0.0, 0.0, 0.0, 0.0, 1.6057141720108964E9, 2020-11-18 09:42:52.010
44.0, 2009386.6875, 1775757.1875, -766406.4375, -724256.578125, -169945.3125, -746556.46875, -487465.265625, -701369.296875, -0.024000000208616257, 0.8220000267028809, 0.47200003266334534, 192.0, 255.0, 64.0, 25.0, 176.0, 14.0, 192.0, 0.0, 0.0, 0.0, 1.6057141720108988E9, 2020-11-18 09:42:52.010
45.0, 1994278.875, 1853346.5625, -752994.84375, -684476.203125, -35568.240234375, -761865.984375, -479153.0625, -632345.296875, -0.024000000208616257, 0.8220000267028809, 0.47200003266334534, 192.0, 0.0, 0.0, 0.0, 0.0, 0.0, 0.0, 0.0, 0.0, 0.0, 1.6057141720109012E9, 2020-11-18 09:42:52.010
46.0, 1992529.5, 1871831.8125, -772538.484375, -718250.578125, 160321.546875, -774316.265625, -491676.328125, -607408.265625, -0.024000000208616257, 0.8220000267028809, 0.47200003266334534, 192.0, 0.0, 0.0, 0.0, 0.0, 0.0, 0.0, 0.0, 0.0, 0.0, 1.6057141720109036E9, 2020-11-18 09:42:52.010
47.0, 2008747.875, 1792671.1875, -785558.484375, -761583.28125, 23146.92919921875, -758292.1875, -500435.859375, -677754.046875, -0.024000000208616257, 0.8220000267028809, 0.47200003266334534, 192.0, 0.0, 0.0, 0.0, 0.0, 0.0, 0.0, 0.0, 0.0, 0.0, 1.6057141720109086E9, 2020-11-18 09:42:52.010
48.0, 2010862.5, 1768599.9375, -769009.78125, -732326.25, -160280.77734375, -746277.515625, -489263.953125, -707156.953125, -0.024000000208616257, 0.8220000267028809, 0.47200003266334534, 192.0, 0.0, 0.0, 0.0, 0.0, 0.0, 0.0, 0.0, 0.0, 0.0, 1.6057141720109112E9, 2020-11-18 09:42:52.010
49.0, 1997530.3125, 1838510.0625, -753439.03125, -687545.15625, -81896.96484375, -757471.96875, -479148.234375, -646503.609375, -0.024000000208616257, 0.8220000267028809, 0.47200003266334534, 192.0, 0.0, 0.0, 0.0, 0.0, 0.0, 0.0, 0.0, 0.0, 0.0, 1.6057141720109136E9, 2020-11-18 09:42:52.010
50.0, 1991293.125, 1878677.8125, -767804.390625, -707896.6875, 150427.9453125, -774295.875, -488313.375, -602598.515625, -0.024000000208616257, 0.8220000267028809, 0.47200003266334534, 192.0, 0.0, 0.0, 0.0, 0.0, 0.0, 0.0, 0.0, 0.0, 0.0, 1.6057141720109162E9, 2020-11-18 09:42:52.010
51.0, 2006074.6875, 1808499.375, -785330.484375, -756801.984375, 68111.484375, -762149.203125, -499912.3125, -662635.5, -0.024000000208616257, 0.8220000267028809, 0.47200003266334534, 192.0, 0.0, 0.0, 0.0, 0.0, 0.0, 0.0, 0.0, 0.0, 0.0, 1.605714172010919E9, 2020-11-18 09:42:52.010
52.0, 2011967.0625, 1764285.375, -772415.109375, -741132.515625, -141457.03125, -746589.703125, -491502.515625, -709415.90625, -0.024000000208616257, 0.8220000267028809, 0.47200003266334534, 192.0, 0.0, 0.0, 0.0, 0.0, 0.0, 0.0, 0.0, 0.0, 0.0, 1.6057141720109217E9, 2020-11-18 09:42:52.010
53.0, 2000776.875, 1822852.5, -755367.0, -693285.65625, -120235.39453125, -753499.640625, -480023.203125, -660829.828125, -0.024000000208616257, 0.8220000267028809, 0.47200003266334534, 192.0, 0.0, 0.0, 0.0, 0.0, 0.0, 0.0, 0.0, 0.0, 0.0, 1.605714172010924E9, 2020-11-18 09:42:52.010
54.0, 1990153.6875, 1881394.875, -763255.359375, -698668.3125, 129133.359375, -773512.6875, -485247.609375, -601505.8125, -0.026000000536441803, 0.8360000252723694, 0.4620000123977661, 192.0, 255.0, 48.0, 26.0, 32.0, 14.0, 112.0, 0.0, 0.0, 0.0, 1.6057141720109265E9, 2020-11-18 09:42:52.010
55.0, 2002970.25, 1824973.5, -784019.4375, -750197.8125, 107277.64453125, -765627.515625, -498961.171875, -647600.625, -0.026000000536441803, 0.8360000252723694, 0.4620000123977661, 192.0, 0.0, 0.0, 0.0, 0.0, 0.0, 0.0, 0.0, 0.0, 0.0, 1.605714172010929E9, 2020-11-18 09:42:52.010
56.0, 2012190.75, 1762971.0, -776340.796875, -749273.015625, -116033.44921875, -748011.28125, -494143.921875, -708733.03125, -0.026000000536441803, 0.8360000252723694, 0.4620000123977661, 192.0, 0.0, 0.0, 0.0, 0.0, 0.0, 0.0, 0.0, 0.0, 0.0, 1.6057141720109315E9, 2020-11-18 09:42:52.010
57.0, 2003650.5, 1807375.5, -758571.140625, -701126.296875, -147501.65625, -750565.828125, -481973.671875, -674491.921875, -0.026000000536441803, 0.8360000252723694, 0.4620000123977661, 192.0, 0.0, 0.0, 0.0, 0.0, 0.0, 0.0, 0.0, 0.0, 0.0, 1.6057141720109344E9, 2020-11-18 09:42:52.010
58.0, 1989923.0625, 1879429.3125, -759084.0, -691295.4375, 95230.23046875, -771588.46875, -482623.875, -604969.078125, -0.026000000536441803, 0.8360000252723694, 0.4620000123977661, 192.0, 0.0, 0.0, 0.0, 0.0, 0.0, 0.0, 0.0, 0.0, 0.0, 1.6057141720109367E9, 2020-11-18 09:42:52.010
59.0, 1999732.875, 1840132.875, -781939.078125, -742532.625, 135729.4453125, -769049.484375, -497632.96875, -634021.171875, -0.026000000536441803, 0.8360000252723694, 0.4620000123977661, 192.0, 0.0, 0.0, 0.0, 0.0, 0.0, 0.0, 0.0, 0.0, 0.0, 1.6057141720109394E9, 2020-11-18 09:42:52.010
60.0, 2012313.0, 1765710.75, -779872.171875, -755953.3125, -85145.12109375, -749954.8125, -496663.078125, -705188.203125, -0.026000000536441803, 0.8360000252723694, 0.4620000123977661, 192.0, 0.0, 0.0, 0.0, 0.0, 0.0, 0.0, 0.0, 0.0, 0.0, 1.605714172010942E9, 2020-11-18 09:42:52.010
61.0, 2006684.625, 1794021.375, -761136.9375, -709052.203125, -164913.4921875, -747902.953125, -483724.078125, -686850.46875, -0.026000000536441803, 0.8360000252723694, 0.4620000123977661, 192.0, 0.0, 0.0, 0.0, 0.0, 0.0, 0.0, 0.0, 0.0, 0.0, 1.6057141720109444E9, 2020-11-18 09:42:52.010
62.0, 1990493.8125, 1873365.375, -755633.578125, -685782.421875, 52249.974609375, -768808.078125, -480713.0625, -612067.265625, -0.026000000536441803, 0.8360000252723694, 0.4620000123977661, 192.0, 0.0, 0.0, 0.0, 0.0, 0.0, 0.0, 0.0, 0.0, 0.0, 1.605714172010947E9, 2020-11-18 09:42:52.010
63.0, 1996751.8125, 1853996.0625, -779118.46875, -733672.734375, 155230.7109375, -771627.09375, -496075.125, -622043.484375, -0.026000000536441803, 0.8360000252723694, 0.4620000123977661, 192.0, 0.0, 0.0, 0.0, 0.0, 0.0, 0.0, 0.0, 0.0, 0.0, 1.6057141720109496E9, 2020-11-18 09:42:52.010
64.0, 2011653.75, 1772469.9375, -782817.234375, -760066.734375, -48451.4267578125, -752417.625, -498808.3125, -697808.90625, -0.030000001192092896, 0.8360000252723694, 0.46000000834465027, 192.0, 255.0, 16.0, 26.0, 32.0, 14.0, 96.0, 0.0, 0.0, 0.0, 1.605714172010952E9, 2020-11-18 09:42:52.010
65.0, 2008324.5, 1782973.3125, -764200.03125, -717611.15625, -169007.61328125, -747052.125, -485873.0625, -696097.125, -0.030000001192092896, 0.8360000252723694, 0.46000000834465027, 192.0, 0.0, 0.0, 0.0, 0.0, 0.0, 0.0, 0.0, 0.0, 0.0, 1.6057141720109546E9, 2020-11-18 09:42:52.010
66.0, 1992546.75, 1862992.3125, -753654.140625, -683946.703125, 2940.2378540039062, -765044.390625, -479588.109375, -623082.046875, -0.030000001192092896, 0.8360000252723694, 0.46000000834465027, 192.0, 0.0, 0.0, 0.0, 0.0, 0.0, 0.0, 0.0, 0.0, 0.0, 1.6057141720109572E9, 2020-11-18 09:42:52.010
67.0, 1994623.875, 1866110.625, -775178.859375, -724142.859375, 164178.0234375, -773229.984375, -493446.5625, -612371.953125, -0.030000001192092896, 0.8360000252723694, 0.46000000834465027, 192.0, 0.0, 0.0, 0.0, 0.0, 0.0, 0.0, 0.0, 0.0, 0.0, 1.6057141720109599E9, 2020-11-18 09:42:52.010
68.0, 2010517.5, 1784134.6875, -784780.640625, -761446.5, -3757.7750244140625, -755777.90625, -499970.25, -686536.125, -0.030000001192092896, 0.8360000252723694, 0.46000000834465027, 192.0, 0.0, 0.0, 0.0, 0.0, 0.0, 0.0, 0.0, 0.0, 0.0, 1.6057141720109625E9, 2020-11-18 09:42:52.010
69.0, 2009991.75, 1773577.125, -767175.65625, -726710.8125, -165382.3359375, -746466.328125, -488068.734375, -703583.203125, -0.030000001192092896, 0.8360000252723694, 0.46000000834465027, 192.0, 0.0, 0.0, 0.0, 0.0, 0.0, 0.0, 0.0, 0.0, 0.0, 1.605714172010965E9, 2020-11-18 09:42:52.010
70.0, 1995118.875, 1848895.125, -753183.65625, -685434.28125, -47817.890625, -760804.359375, -479218.5, -636373.453125, -0.030000001192092896, 0.8360000252723694, 0.46000000834465027, 192.0, 0.0, 0.0, 0.0, 0.0, 0.0, 0.0, 0.0, 0.0, 0.0, 1.6057141720109692E9, 2020-11-18 09:42:52.010
71.0, 1992341.8125, 1874213.0625, -771193.078125, -714791.578125, 160021.67578125, -774363.984375, -490654.921875, -605490.515625, -0.030000001192092896, 0.8360000252723694, 0.46000000834465027, 192.0, 0.0, 0.0, 0.0, 0.0, 0.0, 0.0, 0.0, 0.0, 0.0, 1.6057141720109715E9, 2020-11-18 09:42:52.010
72.0, 2007920.625, 1797041.625, -785807.390625, -760031.34375, 37633.541015625, -759556.59375, -500424.046875, -673115.4375, -0.030000001192092896, 0.8360000252723694, 0.46000000834465027, 192.0, 0.0, 0.0, 0.0, 0.0, 0.0, 0.0, 0.0, 0.0, 0.0, 1.6057141720109742E9, 2020-11-18 09:42:52.010
73.0, 2011229.4375, 1767173.0625, -769861.640625, -735020.8125, -153508.734375, -746169.140625, -489828.796875, -707755.640625, -0.02800000086426735, 0.8360000252723694, 0.4620000123977661, 192.0, 255.0, 32.0, 26.0, 32.0, 14.0, 112.0, 0.0, 0.0, 0.0, 1.6057141720109768E9, 2020-11-18 09:42:52.010
74.0, 1998695.4375, 1833951.375, -753834.375, -689510.71875, -93082.318359375, -755875.546875, -479153.0625, -650762.4375, -0.02800000086426735, 0.8360000252723694, 0.4620000123977661, 192.0, 0.0, 0.0, 0.0, 0.0, 0.0, 0.0, 0.0, 0.0, 0.0, 1.6057141720109792E9, 2020-11-18 09:42:52.010
75.0, 1990989.9375, 1879841.4375, -766183.78125, -704555.765625, 145211.58984375, -773825.390625, -487049.484375, -601830.375, -0.02800000086426735, 0.8360000252723694, 0.4620000123977661, 192.0, 0.0, 0.0, 0.0, 0.0, 0.0, 0.0, 0.0, 0.0, 0.0, 1.605714172010982E9, 2020-11-18 09:42:52.010
76.0, 2005047.9375, 1813075.875, -785073.515625, -754876.6875, 79541.44921875, -763030.59375, -499621.03125, -657944.296875, -0.02800000086426735, 0.8360000252723694, 0.4620000123977661, 192.0, 0.0, 0.0, 0.0, 0.0, 0.0, 0.0, 0.0, 0.0, 0.0, 1.6057141720109844E9, 2020-11-18 09:42:52.010
77.0, 2012191.6875, 1763798.25, -773174.15625, -743222.484375, -134444.66015625, -746598.84375, -492016.96875, -709202.953125, -0.02800000086426735, 0.8360000252723694, 0.4620000123977661, 192.0, 0.0, 0.0, 0.0, 0.0, 0.0, 0.0, 0.0, 0.0, 0.0, 1.605714172010987E9, 2020-11-18 09:42:52.010
78.0, 2001681.1875, 1818073.3125, -756251.578125, -695693.71875, -129418.74609375, -752478.796875, -480610.59375, -664668.09375, -0.02800000086426735, 0.8360000252723694, 0.4620000123977661, 192.0, 0.0, 0.0, 0.0, 0.0, 0.0, 0.0, 0.0, 0.0, 0.0, 1.6057141720109897E9, 2020-11-18 09:42:52.010
79.0, 1989802.875, 1881002.8125, -762102.5625, -696653.4375, 119579.859375, -773312.578125, -484893.0, -601742.90625, -0.02800000086426735, 0.8360000252723694, 0.4620000123977661, 192.0, 0.0, 0.0, 0.0, 0.0, 0.0, 0.0, 0.0, 0.0, 0.0, 1.6057141720109923E9, 2020-11-18 09:42:52.010
80.0, 2002213.5, 1829555.8125, -783297.375, -748130.390625, 116061.33984375, -766640.296875, -499058.296875, -643192.171875, -0.02800000086426735, 0.8360000252723694, 0.4620000123977661, 192.0, 0.0, 0.0, 0.0, 0.0, 0.0, 0.0, 0.0, 0.0, 0.0, 1.605714172010995E9, 2020-11-18 09:42:52.010
81.0, 2012831.8125, 1763835.75, -776826.796875, -751061.484375, -107278.171875, -748159.359375, -494925.0, -707793.1875, -0.02800000086426735, 0.8360000252723694, 0.4620000123977661, 192.0, 0.0, 0.0, 0.0, 0.0, 0.0, 0.0, 0.0, 0.0, 0.0, 1.6057141720109973E9, 2020-11-18 09:42:52.010
82.0, 2005098.9375, 1803531.375, -758945.578125, -703240.921875, -153459.9140625, -749476.875, -482419.453125, -678116.671875, -0.02800000086426735, 0.8360000252723694, 0.4620000123977661, 192.0, 0.0, 0.0, 0.0, 0.0, 0.0, 0.0, 0.0, 0.0, 0.0, 1.605714172011E9, 2020-11-18 09:42:52.011
83.0, 1990364.4375, 1878050.25, -757678.5, -689312.765625, 82480.078125, -770759.109375, -482071.3125, -606529.03125, -0.03200000151991844, 0.8320000171661377, 0.46400001645088196, 192.0, 255.0, 0.0, 26.0, 0.0, 14.0, 128.0, 0.0, 0.0, 0.0, 1.6057141720110023E9, 2020-11-18 09:42:52.011
84.0, 1999164.75, 1844609.4375, -780851.203125, -739706.625, 142056.7734375, -769627.734375, -497227.96875, -629991.421875, -0.03200000151991844, 0.8320000171661377, 0.46400001645088196, 192.0, 0.0, 0.0, 0.0, 0.0, 0.0, 0.0, 0.0, 0.0, 0.0, 1.6057141720110052E9, 2020-11-18 09:42:52.011
85.0, 2012895.5625, 1767640.875, -780295.96875, -756831.984375, -75126.533203125, -750112.546875, -496907.15625, -703057.453125, -0.03200000151991844, 0.8320000171661377, 0.46400001645088196, 192.0, 0.0, 0.0, 0.0, 0.0, 0.0, 0.0, 0.0, 0.0, 0.0, 1.6057141720110075E9, 2020-11-18 09:42:52.011
86.0, 2007428.625, 1790375.25, -761908.359375, -711509.625, -167354.8359375, -747346.125, -483883.40625, -689490.84375, -0.03200000151991844, 0.8320000171661377, 0.46400001645088196, 192.0, 0.0, 0.0, 0.0, 0.0, 0.0, 0.0, 0.0, 0.0, 0.0, 1.6057141720110102E9, 2020-11-18 09:42:52.011
87.0, 1991132.0625, 1870162.875, -754774.734375, -685023.375, 36192.6591796875, -767436.375, -479853.65625, -614989.265625, -0.03200000151991844, 0.8320000171661377, 0.46400001645088196, 192.0, 0.0, 0.0, 0.0, 0.0, 0.0, 0.0, 0.0, 0.0, 0.0, 1.6057141720110128E9, 2020-11-18 09:42:52.011
88.0, 1996209.0, 1857949.125, -777619.6875, -730456.21875, 158014.8515625, -771686.625, -494709.890625, -618393.515625, -0.03200000151991844, 0.8320000171661377, 0.46400001645088196, 192.0, 0.0, 0.0, 0.0, 0.0, 0.0, 0.0, 0.0, 0.0, 0.0, 1.6057141720110154E9, 2020-11-18 09:42:52.011
89.0, 2011497.0, 1775762.4375, -783392.859375, -760674.0, -35350.98046875, -752856.984375, -498743.953125, -693971.765625, -0.03200000151991844, 0.8320000171661377, 0.46400001645088196, 192.0, 0.0, 0.0, 0.0, 0.0, 0.0, 0.0, 0.0, 0.0, 0.0, 1.605714172011018E9, 2020-11-18 09:42:52.011
90.0, 2009020.3125, 1779588.375, -764974.125, -720250.40625, -170575.1015625, -746201.34375, -486132.1875, -698233.265625, -0.03200000151991844, 0.8320000171661377, 0.46400001645088196, 192.0, 0.0, 0.0, 0.0, 0.0, 0.0, 0.0, 0.0, 0.0, 0.0, 1.6057141720110204E9, 2020-11-18 09:42:52.011
91.0, 1993076.8125, 1858575.1875, -753348.890625, -683822.25, -15059.53271484375, -763246.265625, -479067.234375, -626406.375, -0.03200000151991844, 0.8320000171661377, 0.46400001645088196, 192.0, 0.0, 0.0, 0.0, 0.0, 0.0, 0.0, 0.0, 0.0, 0.0, 1.6057141720110233E9, 2020-11-18 09:42:52.011
92.0, 1993650.1875, 1868812.125, -774177.84375, -721029.890625, 162007.58203125, -773312.015625, -492358.125, -609259.546875, -0.03200000151991844, 0.8320000171661377, 0.46400001645088196, 192.0, 0.0, 0.0, 0.0, 0.0, 0.0, 0.0, 0.0, 0.0, 0.0, 1.6057141720110257E9, 2020-11-18 09:42:52.011
93.0, 2009742.9375, 1787964.9375, -785552.015625, -760963.125, 7863.164794921875, -756482.765625, -499976.671875, -681848.15625, -0.02200000174343586, 0.8300000429153442, 0.4580000340938568, 192.0, 255.0, 80.0, 25.0, 240.0, 14.0, 80.0, 0.0, 0.0, 0.0, 1.6057141720110297E9, 2020-11-18 09:42:52.011
94.0, 2010525.5625, 1771329.9375, -768352.078125, -729037.875, -164386.69921875, -745727.109375, -488454.984375, -704781.046875, -0.02200000174343586, 0.8300000429153442, 0.4580000340938568, 192.0, 0.0, 0.0, 0.0, 0.0, 0.0, 0.0, 0.0, 0.0, 0.0, 1.6057141720110323E9, 2020-11-18 09:42:52.011
95.0, 1996320.5625, 1844399.25, -753425.0625, -685931.578125, -65663.701171875, -758616.234375, -479018.953125, -640647.28125, -0.02200000174343586, 0.8300000429153442, 0.4580000340938568, 192.0, 0.0, 0.0, 0.0, 0.0, 0.0, 0.0, 0.0, 0.0, 0.0, 1.6057141720110352E9, 2020-11-18 09:42:52.011
96.0, 1991743.125, 1876483.6875, -769926.5625, -711524.109375, 153874.59375, -774038.90625, -489626.578125, -603605.4375, -0.02200000174343586, 0.8300000429153442, 0.4580000340938568, 192.0, 0.0, 0.0, 0.0, 0.0, 0.0, 0.0, 0.0, 0.0, 0.0, 1.6057141720110376E9, 2020-11-18 09:42:52.011
97.0, 2007133.125, 1802323.875, -785925.375, -758512.6875, 49315.1015625, -760402.03125, -500254.03125, -668066.4375, -0.02200000174343586, 0.8300000429153442, 0.4580000340938568, 192.0, 0.0, 0.0, 0.0, 0.0, 0.0, 0.0, 0.0, 0.0, 0.0, 1.60571417201104E9, 2020-11-18 09:42:52.011
98.0, 2011501.875, 1765902.75, -771382.453125, -738075.328125, -150451.55859375, -746082.796875, -490682.296875, -708356.4375, -0.02200000174343586, 0.8300000429153442, 0.4580000340938568, 192.0, 0.0, 0.0, 0.0, 0.0, 0.0, 0.0, 0.0, 0.0, 0.0, 1.6057141720110433E9, 2020-11-18 09:42:52.011
99.0, 1999374.5625, 1828957.125, -754967.859375, -690802.453125, -107892.3984375, -754730.25, -479822.578125, -655043.25, -0.02200000174343586, 0.8300000429153442, 0.4580000340938568, 192.0, 0.0, 0.0, 0.0, 0.0, 0.0, 0.0, 0.0, 0.0, 0.0, 1.605714172011048E9, 2020-11-18 09:42:52.011
100.0, 1990471.3125, 1881034.5, -765183.890625, -701744.8125, 136910.15625, -773595.28125, -486445.453125, -601108.828125, -0.02200000174343586, 0.8300000429153442, 0.4580000340938568, 192.0, 0.0, 0.0, 0.0, 0.0, 0.0, 0.0, 0.0, 0.0, 0.0, 1.6057141720110505E9, 2020-11-18 09:42:52.011
101.0, 2004135.0, 1818957.9375, -784840.6875, -752572.125, 91897.8515625, -764036.953125, -499328.671875, -652834.6875, -0.02200000174343586, 0.8300000429153442, 0.4580000340938568, 192.0, 0.0, 0.0, 0.0, 0.0, 0.0, 0.0, 0.0, 0.0, 0.0, 1.6057141720110528E9, 2020-11-18 09:42:52.011
102.0, 2012151.5625, 1763224.875, -775132.171875, -745846.734375, -127058.9296875, -747092.90625, -493071.046875, -709051.6875, -0.02200000174343586, 0.8300000429153442, 0.4580000340938568, 192.0, 0.0, 0.0, 0.0, 0.0, 0.0, 0.0, 0.0, 0.0, 0.0, 1.6057141720110557E9, 2020-11-18 09:42:52.011
103.0, 2002675.875, 1813037.25, -757497.1875, -697817.484375, -140501.625, -751188.09375, -481034.90625, -669429.0, -0.01600000075995922, 0.8280000686645508, 0.4660000205039978, 192.0, 255.0, 128.0, 25.0, 224.0, 14.0, 144.0, 0.0, 0.0, 0.0, 1.605714172011058E9, 2020-11-18 09:42:52.011
104.0, 1989925.125, 1880848.875, -760562.953125, -693587.671875, 107462.1796875, -772149.5625, -483358.265625, -602875.875, -0.01600000075995922, 0.8280000686645508, 0.4660000205039978, 192.0, 0.0, 0.0, 0.0, 0.0, 0.0, 0.0, 0.0, 0.0, 0.0, 1.6057141720110607E9, 2020-11-18 09:42:52.011
105.0, 2001209.8125, 1834698.75, -782671.359375, -745005.09375, 124749.01171875, -767293.6875, -497880.28125, -638593.78125, -0.01600000075995922, 0.8280000686645508, 0.4660000205039978, 192.0, 0.0, 0.0, 0.0, 0.0, 0.0, 0.0, 0.0, 0.0, 0.0, 1.6057141724900808E9, 2020-11-18 09:42:52.490
106.0, 2012745.375, 1764414.1875, -778275.75, -752838.75, -98092.681640625, -748513.40625, -495150.84375, -706415.0625, -0.01600000075995922, 0.8280000686645508, 0.4660000205039978, 192.0, 0.0, 0.0, 0.0, 0.0, 0.0, 0.0, 0.0, 0.0, 0.0, 1.6057141724902575E9, 2020-11-18 09:42:52.490
107.0, 2005481.4375, 1798753.875, -760093.03125, -705679.078125, -159917.07421875, -748627.6875, -482543.390625, -681696.890625, -0.01600000075995922, 0.8280000686645508, 0.4660000205039978, 192.0, 0.0, 0.0, 0.0, 0.0, 0.0, 0.0, 0.0, 0.0, 0.0, 1.605714172490287E9, 2020-11-18 09:42:52.490
108.0, 1990200.375, 1876157.625, -756679.125, -687467.390625, 69332.96484375, -769768.3125, -480985.546875, -608316.46875, -0.01600000075995922, 0.8280000686645508, 0.4660000205039978, 192.0, 0.0, 0.0, 0.0, 0.0, 0.0, 0.0, 0.0, 0.0, 0.0, 1.6057141724902945E9, 2020-11-18 09:42:52.490
109.0, 1998191.25, 1849448.625, -779739.703125, -736589.90625, 150434.390625, -770167.96875, -496111.59375, -625749.75, -0.01600000075995922, 0.8280000686645508, 0.4660000205039978, 192.0, 0.0, 0.0, 0.0, 0.0, 0.0, 0.0, 0.0, 0.0, 0.0, 1.6057141724902976E9, 2020-11-18 09:42:52.490
110.0, 2012514.75, 1769774.8125, -781327.03125, -758414.53125, -60904.388671875, -750609.28125, -497191.453125, -700441.21875, -0.01600000075995922, 0.8280000686645508, 0.4660000205039978, 192.0, 0.0, 0.0, 0.0, 0.0, 0.0, 0.0, 0.0, 0.0, 0.0, 1.6057141724903002E9, 2020-11-18 09:42:52.490
111.0, 2008364.8125, 1786734.9375, -762496.828125, -714015.890625, -168244.79296875, -746258.71875, -483973.546875, -692478.84375, -0.01600000075995922, 0.8280000686645508, 0.4660000205039978, 192.0, 0.0, 0.0, 0.0, 0.0, 0.0, 0.0, 0.0, 0.0, 0.0, 1.605714172490304E9, 2020-11-18 09:42:52.490
112.0, 1992018.9375, 1867474.3125, -753571.5, -683648.484375, 22782.685546875, -765630.703125, -478743.75, -617781.984375, -0.03200000151991844, 0.8400000333786011, 0.46400001645088196, 192.0, 255.0, 0.0, 26.0, 64.0, 14.0, 128.0, 0.0, 0.0, 0.0, 1.6057141724903069E9, 2020-11-18 09:42:52.490
113.0, 1995288.0, 1862305.125, -776451.84375, -727241.859375, 165742.2890625, -772365.234375, -493565.109375, -614261.859375, -0.03200000151991844, 0.8400000333786011, 0.46400001645088196, 192.0, 0.0, 0.0, 0.0, 0.0, 0.0, 0.0, 0.0, 0.0, 0.0, 1.6057141724903104E9, 2020-11-18 09:42:52.490
114.0, 2011162.875, 1779141.0, -784280.109375, -761256.5625, -17440.26123046875, -753896.0625, -498954.75, -689981.71875, -0.03200000151991844, 0.8400000333786011, 0.46400001645088196, 192.0, 0.0, 0.0, 0.0, 0.0, 0.0, 0.0, 0.0, 0.0, 0.0, 1.6057141724903138E9, 2020-11-18 09:42:52.490
115.0, 2009923.125, 1776597.75, -765666.140625, -722874.703125, -166069.5234375, -745588.171875, -486279.703125, -700352.203125, -0.03200000151991844, 0.8400000333786011, 0.46400001645088196, 192.0, 0.0, 0.0, 0.0, 0.0, 0.0, 0.0, 0.0, 0.0, 0.0, 1.6057141724903214E9, 2020-11-18 09:42:52.490
116.0, 1994779.875, 1854675.75, -752609.671875, -683972.484375, -27678.791015625, -761341.875, -478303.359375, -630613.6875, -0.03200000151991844, 0.8400000333786011, 0.46400001645088196, 192.0, 0.0, 0.0, 0.0, 0.0, 0.0, 0.0, 0.0, 0.0, 0.0, 1.6057141724903271E9, 2020-11-18 09:42:52.490
117.0, 1993318.125, 1871899.3125, -772300.3125, -717779.0625, 165513.234375, -773571.140625, -490924.734375, -606797.8125, -0.03200000151991844, 0.8400000333786011, 0.46400001645088196, 192.0, 0.0, 0.0, 0.0, 0.0, 0.0, 0.0, 0.0, 0.0, 0.0, 1.6057141724904249E9, 2020-11-18 09:42:52.490
118.0, 2008942.5, 1792029.0, -785575.640625, -760726.59375, 26204.1123046875, -757982.15625, -499860.28125, -677423.578125, -0.03200000151991844, 0.8400000333786011, 0.46400001645088196, 192.0, 0.0, 0.0, 0.0, 0.0, 0.0, 0.0, 0.0, 0.0, 0.0, 1.6057141724904404E9, 2020-11-18 09:42:52.490
119.0, 2010956.8125, 1768845.1875, -769047.84375, -731901.421875, -156586.30078125, -745999.640625, -488853.0, -706167.234375, -0.03200000151991844, 0.8400000333786011, 0.46400001645088196, 192.0, 0.0, 0.0, 0.0, 0.0, 0.0, 0.0, 0.0, 0.0, 0.0, 1.605714172490445E9, 2020-11-18 09:42:52.490
120.0, 1997334.0, 1839195.1875, -753743.15625, -687553.78125, -74941.46484375, -757735.921875, -479066.71875, -645026.8125, -0.03200000151991844, 0.8400000333786011, 0.46400001645088196, 192.0, 0.0, 0.0, 0.0, 0.0, 0.0, 0.0, 0.0, 0.0, 0.0, 1.605714172490451E9, 2020-11-18 09:42:52.490
121.0, 1991699.625, 1877960.0625, -768202.96875, -708646.640625, 153972.22265625, -773895.140625, -488427.09375, -602764.3125, -0.03200000151991844, 0.8400000333786011, 0.46400001645088196, 192.0, 0.0, 0.0, 0.0, 0.0, 0.0, 0.0, 0.0, 0.0, 0.0, 1.6057141724904745E9, 2020-11-18 09:42:52.490
122.0, 2006371.3125, 1807026.375, -785476.40625, -757011.1875, 66851.91796875, -761603.671875, -499827.5625, -663559.78125, -0.030000001192092896, 0.8380000591278076, 0.4580000340938568, 192.0, 255.0, 16.0, 26.0, 48.0, 14.0, 80.0, 0.0, 0.0, 0.0, 1.605714172490478E9, 2020-11-18 09:42:52.490
123.0, 2012054.4375, 1764362.0625, -772338.375, -740787.046875, -140885.71875, -746347.78125, -491252.53125, -709119.28125, -0.030000001192092896, 0.8380000591278076, 0.4580000340938568, 192.0, 0.0, 0.0, 0.0, 0.0, 0.0, 0.0, 0.0, 0.0, 0.0, 1.6057141724904811E9, 2020-11-18 09:42:52.490
124.0, 2000975.8125, 1823803.5, -755285.4375, -693267.9375, -116177.21484375, -753305.953125, -479806.453125, -659726.390625, -0.030000001192092896, 0.8380000591278076, 0.4580000340938568, 192.0, 0.0, 0.0, 0.0, 0.0, 0.0, 0.0, 0.0, 0.0, 0.0, 1.6057141724904857E9, 2020-11-18 09:42:52.490
125.0, 1990662.1875, 1881308.625, -763448.484375, -698979.421875, 132184.640625, -773257.3125, -485227.21875, -601203.234375, -0.030000001192092896, 0.8380000591278076, 0.4580000340938568, 192.0, 0.0, 0.0, 0.0, 0.0, 0.0, 0.0, 0.0, 0.0, 0.0, 1.605714172490489E9, 2020-11-18 09:42:52.490
126.0, 2003398.875, 1823410.3125, -784339.125, -750735.328125, 105166.20703125, -765320.671875, -499071.703125, -648507.75, -0.030000001192092896, 0.8380000591278076, 0.4580000340938568, 192.0, 0.0, 0.0, 0.0, 0.0, 0.0, 0.0, 0.0, 0.0, 0.0, 1.6057141724904945E9, 2020-11-18 09:42:52.490
127.0, 2012625.75, 1762828.875, -775875.703125, -748240.359375, -117853.59375, -747470.578125, -493742.671875, -708869.8125, -0.030000001192092896, 0.8380000591278076, 0.4580000340938568, 192.0, 0.0, 0.0, 0.0, 0.0, 0.0, 0.0, 0.0, 0.0, 0.0, 1.6057141724905002E9, 2020-11-18 09:42:52.490
128.0, 2004002.4375, 1808451.75, -758058.328125, -700092.5625, -145731.3984375, -750201.046875, -481442.0625, -673394.390625, -0.030000001192092896, 0.8380000591278076, 0.4580000340938568, 192.0, 0.0, 0.0, 0.0, 0.0, 0.0, 0.0, 0.0, 0.0, 0.0, 1.6057141724905105E9, 2020-11-18 09:42:52.490
129.0, 1990601.0625, 1879724.4375, -758937.5625, -691206.9375, 97553.560546875, -771162.515625, -482404.453125, -604410.65625, -0.030000001192092896, 0.8380000591278076, 0.4580000340938568, 192.0, 0.0, 0.0, 0.0, 0.0, 0.0, 0.0, 0.0, 0.0, 0.0, 1.6057141724905183E9, 2020-11-18 09:42:52.490
130.0, 2000759.625, 1839218.8125, -781456.3125, -742261.171875, 133303.65234375, -767918.671875, -497259.609375, -634744.265625, -0.030000001192092896, 0.8380000591278076, 0.4580000340938568, 192.0, 0.0, 0.0, 0.0, 0.0, 0.0, 0.0, 0.0, 0.0, 0.0, 1.6057141724905236E9, 2020-11-18 09:42:52.490
131.0, 2013224.4375, 1765590.0, -778734.9375, -754461.984375, -88824.580078125, -748856.71875, -495673.875, -705274.59375, -0.030000001192092896, 0.8380000591278076, 0.4580000340938568, 192.0, 0.0, 0.0, 0.0, 0.0, 0.0, 0.0, 0.0, 0.0, 0.0, 1.6057141724905264E9, 2020-11-18 09:42:52.490
132.0, 2006920.125, 1794902.8125, -760626.796875, -708101.625, -165147.375, -747867.515625, -482995.59375, -685535.671875, -0.02800000086426735, 0.8400000333786011, 0.4660000205039978, 192.0, 255.0, 32.0, 26.0, 64.0, 14.0, 144.0, 0.0, 0.0, 0.0, 1.6057141724905326E9, 2020-11-18 09:42:52.490
133.0, 1991120.8125, 1873849.875, -755348.765625, -685823.203125, 53549.771484375, -768558.609375, -480245.25, -611102.765625, -0.02800000086426735, 0.8400000333786011, 0.4660000205039978, 192.0, 0.0, 0.0, 0.0, 0.0, 0.0, 0.0, 0.0, 0.0, 0.0, 1.605714172490536E9, 2020-11-18 09:42:52.490
134.0, 1997669.25, 1853397.9375, -778637.8125, -733695.796875, 152794.1953125, -770670.609375, -495358.453125, -622231.21875, -0.02800000086426735, 0.8400000333786011, 0.4660000205039978, 192.0, 0.0, 0.0, 0.0, 0.0, 0.0, 0.0, 0.0, 0.0, 0.0, 1.605714172490539E9, 2020-11-18 09:42:52.490
135.0, 2012547.375, 1772167.3125, -782075.34375, -759217.546875, -52424.314453125, -751378.546875, -497819.109375, -697844.34375, -0.02800000086426735, 0.8400000333786011, 0.4660000205039978, 192.0, 0.0, 0.0, 0.0, 0.0, 0.0, 0.0, 0.0, 0.0, 0.0, 1.605714172490543E9, 2020-11-18 09:42:52.490
136.0, 2009009.0625, 1783528.6875, -763644.28125, -716510.34375, -171068.0859375, -746282.34375, -485102.203125, -695026.921875, -0.02800000086426735, 0.8400000333786011, 0.4660000205039978, 192.0, 0.0, 0.0, 0.0, 0.0, 0.0, 0.0, 0.0, 0.0, 0.0, 1.605714172490548E9, 2020-11-18 09:42:52.490
137.0, 1993226.4375, 1863687.0, -753233.578125, -683361.984375, 3494.3822021484375, -764357.765625, -479094.046875, -621799.40625, -0.02800000086426735, 0.8400000333786011, 0.4660000205039978, 192.0, 0.0, 0.0, 0.0, 0.0, 0.0, 0.0, 0.0, 0.0, 0.0, 1.6057141724905584E9, 2020-11-18 09:42:52.490
138.0, 1995452.0625, 1865341.3125, -775045.828125, -724134.796875, 160495.359375, -772441.40625, -493162.265625, -612542.578125, -0.02800000086426735, 0.8400000333786011, 0.4660000205039978, 192.0, 0.0, 0.0, 0.0, 0.0, 0.0, 0.0, 0.0, 0.0, 0.0, 1.6057141724905648E9, 2020-11-18 09:42:52.490
139.0, 2011240.6875, 1783227.1875, -784439.4375, -760746.421875, -10000.88525390625, -754932.46875, -499536.796875, -686851.03125, -0.02800000086426735, 0.8400000333786011, 0.4660000205039978, 192.0, 0.0, 0.0, 0.0, 0.0, 0.0, 0.0, 0.0, 0.0, 0.0, 1.6057141724905672E9, 2020-11-18 09:42:52.490
140.0, 2010639.75, 1774514.8125, -766689.65625, -725178.703125, -167403.65625, -745763.0625, -487556.953125, -702534.421875, -0.02800000086426735, 0.8400000333786011, 0.4660000205039978, 192.0, 0.0, 0.0, 0.0, 0.0, 0.0, 0.0, 0.0, 0.0, 0.0, 1.6057141724905736E9, 2020-11-18 09:42:52.490
141.0, 1995759.9375, 1850083.3125, -752926.171875, -684616.734375, -46933.833984375, -760154.203125, -479103.703125, -635378.34375, -0.02800000086426735, 0.8400000333786011, 0.4660000205039978, 192.0, 0.0, 0.0, 0.0, 0.0, 0.0, 0.0, 0.0, 0.0, 0.0, 1.6057141724905765E9, 2020-11-18 09:42:52.490
142.0, 1993202.25, 1874187.1875, -771020.34375, -714733.640625, 158913.38671875, -773588.859375, -490726.828125, -605621.90625, -0.024000000208616257, 0.8240000605583191, 0.46400001645088196, 192.0, 255.0, 64.0, 25.0, 192.0, 14.0, 128.0, 0.0, 0.0, 0.0, 1.6057141724905803E9, 2020-11-18 09:42:52.490
143.0, 2009062.6875, 1796976.75, -785153.4375, -759182.671875, 34840.8251953125, -758460.09375, -500133.84375, -673680.84375, -0.024000000208616257, 0.8240000605583191, 0.46400001645088196, 192.0, 0.0, 0.0, 0.0, 0.0, 0.0, 0.0, 0.0, 0.0, 0.0, 1.6057141724905856E9, 2020-11-18 09:42:52.490
144.0, 2012027.625, 1767638.625, -769622.90625, -734219.390625, -155557.40625, -745560.84375, -489781.59375, -707516.90625, -0.024000000208616257, 0.8240000605583191, 0.46400001645088196, 192.0, 0.0, 0.0, 0.0, 0.0, 0.0, 0.0, 0.0, 0.0, 0.0, 1.6057141724906015E9, 2020-11-18 09:42:52.490
145.0, 1999177.6875, 1834644.0, -753570.984375, -689103.0, -93150.4453125, -755458.171875, -479327.953125, -649898.765625, -0.024000000208616257, 0.8240000605583191, 0.46400001645088196, 192.0, 0.0, 0.0, 0.0, 0.0, 0.0, 0.0, 0.0, 0.0, 0.0, 1.6057141724906132E9, 2020-11-18 09:42:52.490
146.0, 1991539.3125, 1879765.125, -766315.78125, -704956.453125, 145525.9453125, -773509.453125, -487441.640625, -601444.125, -0.024000000208616257, 0.8240000605583191, 0.46400001645088196, 192.0, 0.0, 0.0, 0.0, 0.0, 0.0, 0.0, 0.0, 0.0, 0.0, 1.605714172490618E9, 2020-11-18 09:42:52.490
147.0, 2005905.75, 1812702.0, -784929.75, -754834.828125, 78081.2578125, -762496.828125, -499857.609375, -658456.078125, -0.024000000208616257, 0.8240000605583191, 0.46400001645088196, 192.0, 0.0, 0.0, 0.0, 0.0, 0.0, 0.0, 0.0, 0.0, 0.0, 1.605714172490625E9, 2020-11-18 09:42:52.490
148.0, 2012675.0625, 1763925.375, -773167.734375, -742799.765625, -135913.44140625, -746390.71875, -492135.515625, -709408.40625, -0.024000000208616257, 0.8240000605583191, 0.46400001645088196, 192.0, 0.0, 0.0, 0.0, 0.0, 0.0, 0.0, 0.0, 0.0, 0.0, 1.6057141724906306E9, 2020-11-18 09:42:52.490
149.0, 2002083.5625, 1818801.1875, -756079.359375, -695003.859375, -128788.95703125, -752203.59375, -480372.421875, -664246.453125, -0.024000000208616257, 0.8240000605583191, 0.46400001645088196, 192.0, 0.0, 0.0, 0.0, 0.0, 0.0, 0.0, 0.0, 0.0, 0.0, 1.6057141724906373E9, 2020-11-18 09:42:52.490
150.0, 1990579.125, 1880786.0625, -762161.015625, -696818.625, 119964.4921875, -772635.046875, -484403.25, -601878.09375, -0.024000000208616257, 0.8240000605583191, 0.46400001645088196, 192.0, 0.0, 0.0, 0.0, 0.0, 0.0, 0.0, 0.0, 0.0, 0.0, 1.6057141724906445E9, 2020-11-18 09:42:52.490
151.0, 2002759.5, 1828120.875, -783555.9375, -748430.25, 112198.95703125, -765900.5625, -498433.3125, -644204.4375, -0.020000001415610313, 0.8280000686645508, 0.4620000123977661, 192.0, 255.0, 96.0, 25.0, 224.0, 14.0, 112.0, 0.0, 0.0, 0.0, 1.605714172490666E9, 2020-11-18 09:42:52.490
152.0, 2012766.75, 1762982.8125, -777066.609375, -750675.796875, -111642.12890625, -747773.671875, -494323.125, -708153.65625, -0.020000001415610313, 0.8280000686645508, 0.4620000123977661, 192.0, 0.0, 0.0, 0.0, 0.0, 0.0, 0.0, 0.0, 0.0, 0.0, 1.605714172490676E9, 2020-11-18 09:42:52.490
153.0, 2004955.6875, 1803629.0625, -759036.796875, -702964.640625, -154975.37109375, -749204.34375, -481905.046875, -677643.515625, -0.020000001415610313, 0.8280000686645508, 0.4620000123977661, 192.0, 0.0, 0.0, 0.0, 0.0, 0.0, 0.0, 0.0, 0.0, 0.0, 1.6057141724906814E9, 2020-11-18 09:42:52.490
154.0, 1990491.0, 1877674.125, -757962.84375, -689835.796875, 83076.603515625, -770629.828125, -481784.859375, -606250.640625, -0.020000001415610313, 0.8280000686645508, 0.4620000123977661, 192.0, 0.0, 0.0, 0.0, 0.0, 0.0, 0.0, 0.0, 0.0, 0.0, 1.605714172490693E9, 2020-11-18 09:42:52.490
155.0, 1999400.8125, 1842891.75, -781101.703125, -740519.90625, 138399.85546875, -769349.859375, -497133.0, -630893.15625, -0.020000001415610313, 0.8280000686645508, 0.4620000123977661, 192.0, 0.0, 0.0, 0.0, 0.0, 0.0, 0.0, 0.0, 0.0, 0.0, 1.6057141724906979E9, 2020-11-18 09:42:52.490
156.0, 2012558.625, 1766472.375, -780492.328125, -757274.578125, -79177.74609375, -750182.296875, -497060.578125, -703543.5, -0.020000001415610313, 0.8280000686645508, 0.4620000123977661, 192.0, 0.0, 0.0, 0.0, 0.0, 0.0, 0.0, 0.0, 0.0, 0.0, 1.605714172490702E9, 2020-11-18 09:42:52.490
157.0, 2007249.0, 1790479.875, -762056.4375, -711483.375, -167958.328125, -747725.90625, -484205.8125, -688986.609375, -0.020000001415610313, 0.8280000686645508, 0.4620000123977661, 192.0, 0.0, 0.0, 0.0, 0.0, 0.0, 0.0, 0.0, 0.0, 0.0, 1.6057141724907112E9, 2020-11-18 09:42:52.490
158.0, 1991459.8125, 1870321.125, -754872.375, -685271.203125, 38312.1416015625, -767472.328125, -480078.984375, -614424.9375, -0.020000001415610313, 0.8280000686645508, 0.4620000123977661, 192.0, 0.0, 0.0, 0.0, 0.0, 0.0, 0.0, 0.0, 0.0, 0.0, 1.6057141724907176E9, 2020-11-18 09:42:52.490
159.0, 1996920.375, 1856334.9375, -777885.1875, -731196.0, 154516.171875, -771283.21875, -494812.875, -619529.71875, -0.020000001415610313, 0.8280000686645508, 0.4620000123977661, 192.0, 0.0, 0.0, 0.0, 0.0, 0.0, 0.0, 0.0, 0.0, 0.0, 1.6057141724907215E9, 2020-11-18 09:42:52.490
